timestamp,address,values
2025-11-24T15:53:13.689034,/muse/eeg,"[800.6227106227107, 767.1794871794872, 833.2600732600733, 795.7875457875458]"
2025-11-24T15:53:13.721369,/muse/eegAux,"[nan, nan, 0.0, 0.0]"
2025-11-24T15:53:13.815216,/muse/eeg,"[778.4615384615385, 771.6117216117216, 288.9010989010989, 793.3699633699634]"
2025-11-24T15:53:13.907261,/muse/eegAux,"[nan, nan, 0.0, 0.0]"
2025-11-24T15:53:13.953796,/muse/eeg,"[796.996336996337, 780.0732600732601, 407.3626373626374, 801.8315018315019]"
2025-11-24T15:53:13.985214,/muse/eegAux,"[nan, nan, 0.0, 0.0]"
2025-11-24T15:53:14.046570,/muse/eeg,"[796.996336996337, 780.0732600732601, 407.3626373626374, 801.8315018315019]"
2025-11-24T15:53:14.092563,/muse/eegAux,"[nan, nan, 0.0, 0.0]"
2025-11-24T15:53:14.155091,/muse/eeg,"[796.996336996337, 780.0732600732601, 407.3626373626374, 801.8315018315019]"
2025-11-24T15:53:14.170364,/muse/eegAux,"[nan, nan, 0.0, 0.0]"
2025-11-24T15:53:14.263704,/muse/elements/alpha_absolute,"[1.1694582624693117, 0.8185540857892387, 0.9472492683000144, 0.5940557472507854]"
2025-11-24T15:53:14.340917,/muse/elements/beta_absolute,"[0.6135376932440341, 0.5993599398707254, 0.9853979264338821, 0.642817199279169]"
2025-11-24T15:53:14.433827,/muse/elements/delta_absolute,"[0.6123864615614656, 0.7325764842106957, 0.9951193641341841, 0.927456495310066]"
2025-11-24T15:53:14.480607,/muse/elements/theta_absolute,"[0.9996193302544583, 0.5221215924551393, 0.7240757446562845, 0.7107288553296518]"
2025-11-24T15:53:14.574579,/muse/elements/gamma_absolute,"[0.12305091856097049, 0.11366411689285724, 0.5136139700309592, 0.05917880183270805]"
2025-11-24T15:53:14.636967,/muse/elements/alpha_relative,"[0.43075458008627615, 0.3198274472260471, 0.23952359640232274, 0.17025291465434209]"
2025-11-24T15:53:14.714770,/muse/elements/beta_relative,"[0.11975932365384516, 0.1930730182151806, 0.2615152154619236, 0.1904829058149579]"
2025-11-24T15:53:14.775822,/muse/elements/delta_relative,"[0.11944228496168649, 0.2623844721899659, 0.26743509587853037, 0.3668557273240509]"
2025-11-24T15:53:14.869479,/muse/elements/theta_relative,"[0.2913338657903396, 0.16161558490968325, 0.14327643941486778, 0.22272433127839997]"
2025-11-24T15:53:14.931155,/muse/elements/gamma_relative,"[0.03870994550785268, 0.06309947745912316, 0.08824965284235554, 0.04968412092824916]"
2025-11-24T15:53:15.040481,/muse/is_good,"[0.0, 1.0, 0.0, 0.0]"
2025-11-24T15:53:15.102960,/muse/hsi,"[1.0, 1.0, 2.0, 1.0]"
2025-11-24T15:53:15.166003,/muse/eeg,"[775.2380952380953, 773.2234432234433, 557.6556776556777, 793.3699633699634]"
2025-11-24T15:53:15.213420,/muse/eegAux,"[nan, nan, 0.0, 0.0]"
2025-11-24T15:53:15.307142,/muse/eegAux,"[nan, nan, 0.0, 0.0]"
2025-11-24T15:53:15.291740,/muse/eeg,"[775.2380952380953, 773.2234432234433, 557.6556776556777, 793.3699633699634]"
2025-11-24T15:53:15.353222,/muse/eeg,"[775.2380952380953, 773.2234432234433, 557.6556776556777, 793.3699633699634]"
2025-11-24T15:53:15.507593,/muse/eegAux,"[nan, nan, 0.0, 0.0]"
2025-11-24T15:53:15.570190,/muse/eeg,"[775.2380952380953, 773.2234432234433, 557.6556776556777, 793.3699633699634]"
2025-11-24T15:53:15.646828,/muse/eegAux,"[nan, nan, 0.0, 0.0]"
2025-11-24T15:53:15.757265,/muse/eeg,"[775.2380952380953, 773.2234432234433, 557.6556776556777, 793.3699633699634]"
2025-11-24T15:53:15.803475,/muse/eegAux,"[nan, nan, 0.0, 0.0]"
2025-11-24T15:53:15.880772,/muse/eeg,"[775.2380952380953, 773.2234432234433, 557.6556776556777, 793.3699633699634]"
2025-11-24T15:53:15.943427,/muse/eegAux,"[nan, nan, 0.0, 0.0]"
2025-11-24T15:53:16.006130,/muse/eeg,"[775.2380952380953, 773.2234432234433, 557.6556776556777, 793.3699633699634]"
2025-11-24T15:53:16.054197,/muse/eegAux,"[nan, nan, 0.0, 0.0]"
2025-11-24T15:53:16.115844,/muse/drlref,"[1618974.358974359, 1596410.2564102563]"
2025-11-24T15:53:16.146784,/muse/drlref,"[1618974.358974359, 1596410.2564102563]"
2025-11-24T15:53:16.192721,/muse/drlref,"[1618974.358974359, 1596410.2564102563]"
2025-11-24T15:53:16.300809,/muse/drlref,"[1618974.358974359, 1596410.2564102563]"
2025-11-24T15:53:16.347515,/muse/drlref,"[1618974.358974359, 1596410.2564102563]"
2025-11-24T15:53:16.378228,/muse/drlref,"[1618974.358974359, 1596410.2564102563]"
2025-11-24T15:53:16.440129,/muse/gyro,"[3.701019287109375, -3.648681640625, 0.366363525390625]"
2025-11-24T15:53:16.486252,/muse/gyro,"[3.701019287109375, -3.648681640625, 0.366363525390625]"
2025-11-24T15:53:16.501723,/muse/gyro,"[3.701019287109375, -3.648681640625, 0.366363525390625]"
2025-11-24T15:53:16.579694,/muse/acc,"[0.23663330078125, -0.14959716796875, 0.96453857421875]"
2025-11-24T15:53:16.626368,/muse/acc,"[0.23663330078125, -0.14959716796875, 0.96453857421875]"
2025-11-24T15:53:16.705613,/muse/acc,"[0.23663330078125, -0.14959716796875, 0.96453857421875]"
2025-11-24T15:53:16.799750,/muse/eegAux,"[nan, nan, 0.0, 0.0]"
2025-11-24T15:53:16.752470,/muse/eeg,"[777.6556776556777, 767.1794871794872, 519.7802197802198, 782.893772893773]"
2025-11-24T15:53:16.879533,/muse/eeg,"[786.5201465201466, 781.6849816849817, 321.13553113553115, 789.7435897435897]"
2025-11-24T15:53:16.895417,/muse/eegAux,"[nan, nan, 0.0, 0.0]"
2025-11-24T15:53:16.973326,/muse/eeg,"[798.2051282051282, 782.893772893773, 458.13186813186815, 797.8021978021978]"
2025-11-24T15:53:17.051186,/muse/eegAux,"[nan, nan, 0.0, 0.0]"
2025-11-24T15:53:17.097922,/muse/eeg,"[790.952380952381, 769.5970695970697, 142.23443223443223, 790.5494505494506]"
2025-11-24T15:53:17.144566,/muse/eegAux,"[nan, nan, 0.0, 0.0]"
2025-11-24T15:53:17.252923,/muse/eeg,"[813.919413919414, 771.2087912087912, 479.0842490842491, 798.6080586080586]"
2025-11-24T15:53:17.330516,/muse/eegAux,"[nan, nan, 0.0, 0.0]"
2025-11-24T15:53:17.376441,/muse/eeg,"[793.3699633699634, 770.8058608058608, 463.7728937728938, 782.0879120879121]"
2025-11-24T15:53:17.469504,/muse/eegAux,"[nan, nan, 0.0, 0.0]"
2025-11-24T15:53:17.579349,/muse/eeg,"[793.3699633699634, 770.8058608058608, 463.7728937728938, 782.0879120879121]"
2025-11-24T15:53:17.642643,/muse/eegAux,"[nan, nan, 0.0, 0.0]"
2025-11-24T15:53:17.688743,/muse/eeg,"[793.3699633699634, 770.8058608058608, 463.7728937728938, 782.0879120879121]"
2025-11-24T15:53:17.783051,/muse/eegAux,"[nan, nan, 0.0, 0.0]"
2025-11-24T15:53:17.846400,/muse/eeg,"[793.3699633699634, 770.8058608058608, 463.7728937728938, 782.0879120879121]"
2025-11-24T15:53:17.971950,/muse/eegAux,"[nan, nan, 0.0, 0.0]"
2025-11-24T15:53:18.049561,/muse/eegAux,"[nan, nan, 0.0, 0.0]"
2025-11-24T15:53:18.033926,/muse/eeg,"[793.3699633699634, 770.8058608058608, 463.7728937728938, 782.0879120879121]"
2025-11-24T15:53:18.096413,/muse/eeg,"[793.3699633699634, 770.8058608058608, 463.7728937728938, 782.0879120879121]"
2025-11-24T15:53:18.157430,/muse/eegAux,"[nan, nan, 0.0, 0.0]"
2025-11-24T15:53:18.218916,/muse/eeg,"[793.3699633699634, 770.8058608058608, 463.7728937728938, 782.0879120879121]"
2025-11-24T15:53:18.312059,/muse/eegAux,"[nan, nan, 0.0, 0.0]"
2025-11-24T15:53:18.358835,/muse/eeg,"[780.4761904761905, 770.0, 550.8058608058608, 779.2673992673992]"
2025-11-24T15:53:18.467281,/muse/eegAux,"[nan, nan, 0.0, 0.0]"
2025-11-24T15:53:18.574540,/muse/eeg,"[799.0109890109891, 777.6556776556777, 402.9304029304029, 799.0109890109891]"
2025-11-24T15:53:18.620778,/muse/eegAux,"[nan, nan, 0.0, 0.0]"
2025-11-24T15:53:18.713603,/muse/eeg,"[801.8315018315019, 783.6996336996338, 445.23809523809524, 804.6520146520147]"
2025-11-24T15:53:18.806767,/muse/eegAux,"[nan, nan, 0.0, 0.0]"
2025-11-24T15:53:18.852555,/muse/eeg,"[790.952380952381, 784.5054945054945, 331.61172161172163, 793.7728937728938]"
2025-11-24T15:53:18.899589,/muse/eegAux,"[nan, nan, 0.0, 0.0]"
2025-11-24T15:53:18.976465,/muse/eeg,"[800.6227106227107, 774.8351648351648, 60.03663003663004, 808.6813186813187]"
2025-11-24T15:53:19.053545,/muse/eegAux,"[nan, nan, 0.0, 0.0]"
2025-11-24T15:53:19.099619,/muse/eeg,"[800.6227106227107, 774.8351648351648, 60.03663003663004, 808.6813186813187]"
2025-11-24T15:53:19.145722,/muse/eegAux,"[nan, nan, 0.0, 0.0]"
2025-11-24T15:53:19.223164,/muse/eeg,"[800.6227106227107, 774.8351648351648, 60.03663003663004, 808.6813186813187]"
2025-11-24T15:53:19.285852,/muse/eegAux,"[nan, nan, 0.0, 0.0]"
2025-11-24T15:53:19.378884,/muse/elements/alpha_absolute,"[0.9560546847160166, 0.8185540857892387, 0.9472492683000144, 0.5940557472507854]"
2025-11-24T15:53:19.440197,/muse/elements/beta_absolute,"[0.5729622924238938, 0.5885924121023338, 0.9853979264338821, 0.642817199279169]"
2025-11-24T15:53:19.565402,/muse/elements/theta_absolute,"[0.9326996593938564, 0.5039581736517438, 0.7240757446562845, 0.7107288553296518]"
2025-11-24T15:53:19.518146,/muse/elements/delta_absolute,"[0.5460691183208958, 0.732298512977033, 0.9951193641341841, 0.927456495310066]"
2025-11-24T15:53:19.643046,/muse/elements/gamma_absolute,"[0.09291180398734424, 0.10947586929515782, 0.5136139700309592, 0.05917880183270805]"
2025-11-24T15:53:19.704470,/muse/elements/alpha_relative,"[0.3463016085095841, 0.32375175183752625, 0.23952359640232274, 0.17025291465434209]"
2025-11-24T15:53:19.782536,/muse/elements/beta_relative,"[0.14333825612826362, 0.19065598955167484, 0.2615152154619236, 0.1904829058149579]"
2025-11-24T15:53:19.814287,/muse/elements/delta_relative,"[0.13473143716584066, 0.2654340015201039, 0.26743509587853037, 0.3668557273240509]"
2025-11-24T15:53:19.922477,/muse/elements/theta_relative,"[0.3281704582204101, 0.1568975691258072, 0.14327643941486778, 0.22272433127839997]"
2025-11-24T15:53:20.000307,/muse/elements/gamma_relative,"[0.04745823997590154, 0.06326068796488797, 0.08824965284235554, 0.04968412092824916]"
2025-11-24T15:53:20.108268,/muse/is_good,"[0.0, 1.0, 0.0, 0.0]"
2025-11-24T15:53:20.170548,/muse/hsi,"[1.0, 1.0, 2.0, 1.0]"
2025-11-24T15:53:20.217396,/muse/eeg,"[817.1428571428571, 778.4615384615385, 838.901098901099, 802.6373626373627]"
2025-11-24T15:53:20.279227,/muse/eegAux,"[nan, nan, 0.0, 0.0]"
2025-11-24T15:53:20.373148,/muse/eeg,"[817.1428571428571, 778.4615384615385, 838.901098901099, 802.6373626373627]"
2025-11-24T15:53:20.404630,/muse/eegAux,"[nan, nan, 0.0, 0.0]"
2025-11-24T15:53:20.435316,/muse/eeg,"[817.1428571428571, 778.4615384615385, 838.901098901099, 802.6373626373627]"
2025-11-24T15:53:20.450758,/muse/eegAux,"[nan, nan, 0.0, 0.0]"
2025-11-24T15:53:20.513421,/muse/eeg,"[817.1428571428571, 778.4615384615385, 838.901098901099, 802.6373626373627]"
2025-11-24T15:53:20.559763,/muse/eegAux,"[nan, nan, 0.0, 0.0]"
2025-11-24T15:53:20.654034,/muse/eeg,"[817.1428571428571, 778.4615384615385, 838.901098901099, 802.6373626373627]"
2025-11-24T15:53:20.747368,/muse/eegAux,"[nan, nan, 0.0, 0.0]"
2025-11-24T15:53:20.809771,/muse/gyro,"[4.007568359375, -3.9178466796875, 0.34393310546875]"
2025-11-24T15:53:20.856772,/muse/gyro,"[4.007568359375, -3.9178466796875, 0.34393310546875]"
2025-11-24T15:53:20.902883,/muse/gyro,"[4.007568359375, -3.9178466796875, 0.34393310546875]"
2025-11-24T15:53:20.980584,/muse/acc,"[0.23663330078125, -0.14495849609375, 0.97283935546875]"
2025-11-24T15:53:21.103996,/muse/acc,"[0.23663330078125, -0.14495849609375, 0.97283935546875]"
2025-11-24T15:53:21.230185,/muse/acc,"[0.23663330078125, -0.14495849609375, 0.97283935546875]"
2025-11-24T15:53:21.370035,/muse/eeg,"[788.1318681318681, 770.8058608058608, 197.43589743589743, 785.3113553113553]"
2025-11-24T15:53:21.417594,/muse/eegAux,"[nan, nan, 0.0, 0.0]"
2025-11-24T15:53:21.433300,/muse/eeg,"[815.934065934066, 785.7142857142858, 531.8681318681319, 813.5164835164835]"
2025-11-24T15:53:21.543866,/muse/eegAux,"[nan, nan, 0.0, 0.0]"
2025-11-24T15:53:21.606389,/muse/eeg,"[815.934065934066, 785.7142857142858, 531.8681318681319, 813.5164835164835]"
2025-11-24T15:53:21.729536,/muse/eeg,"[815.934065934066, 785.7142857142858, 531.8681318681319, 813.5164835164835]"
2025-11-24T15:53:21.667896,/muse/eegAux,"[nan, nan, 0.0, 0.0]"
2025-11-24T15:53:21.745092,/muse/eegAux,"[nan, nan, 0.0, 0.0]"
2025-11-24T15:53:21.791699,/muse/eeg,"[815.934065934066, 785.7142857142858, 531.8681318681319, 813.5164835164835]"
2025-11-24T15:53:21.869549,/muse/eegAux,"[nan, nan, 0.0, 0.0]"
2025-11-24T15:53:21.962490,/muse/eeg,"[815.934065934066, 785.7142857142858, 531.8681318681319, 813.5164835164835]"
2025-11-24T15:53:22.088802,/muse/eeg,"[815.934065934066, 785.7142857142858, 531.8681318681319, 813.5164835164835]"
2025-11-24T15:53:22.057095,/muse/eegAux,"[nan, nan, 0.0, 0.0]"
2025-11-24T15:53:22.104439,/muse/eegAux,"[nan, nan, 0.0, 0.0]"
2025-11-24T15:53:22.150516,/muse/eeg,"[815.934065934066, 785.7142857142858, 531.8681318681319, 813.5164835164835]"
2025-11-24T15:53:22.213260,/muse/eegAux,"[nan, nan, 0.0, 0.0]"
2025-11-24T15:53:22.306258,/muse/eeg,"[815.934065934066, 785.7142857142858, 531.8681318681319, 813.5164835164835]"
2025-11-24T15:53:22.337307,/muse/eegAux,"[nan, nan, 0.0, 0.0]"
2025-11-24T15:53:22.384484,/muse/eeg,"[815.934065934066, 785.7142857142858, 531.8681318681319, 813.5164835164835]"
2025-11-24T15:53:22.476869,/muse/eegAux,"[nan, nan, 0.0, 0.0]"
2025-11-24T15:53:22.538880,/muse/eeg,"[815.934065934066, 785.7142857142858, 531.8681318681319, 813.5164835164835]"
2025-11-24T15:53:22.694041,/muse/eeg,"[815.934065934066, 785.7142857142858, 531.8681318681319, 813.5164835164835]"
2025-11-24T15:53:22.631854,/muse/eegAux,"[nan, nan, 0.0, 0.0]"
2025-11-24T15:53:22.756096,/muse/eegAux,"[nan, nan, 0.0, 0.0]"
2025-11-24T15:53:22.817880,/muse/gyro,"[3.566436767578125, -3.9178466796875, 0.25421142578125]"
2025-11-24T15:53:22.848956,/muse/gyro,"[3.529052734375, -3.81317138671875, 0.85235595703125]"
2025-11-24T15:53:22.878865,/muse/gyro,"[3.529052734375, -3.81317138671875, 0.85235595703125]"
2025-11-24T15:53:22.941438,/muse/acc,"[0.245361328125, -0.14984130859375, 0.9678955078125]"
2025-11-24T15:53:22.972869,/muse/acc,"[0.245361328125, -0.14984130859375, 0.9678955078125]"
2025-11-24T15:53:23.050839,/muse/acc,"[0.245361328125, -0.14984130859375, 0.9678955078125]"
2025-11-24T15:53:23.144662,/muse/eeg,"[791.3553113553114, 773.6263736263736, 456.92307692307696, 798.2051282051282]"
2025-11-24T15:53:23.191429,/muse/eegAux,"[nan, nan, 0.0, 0.0]"
2025-11-24T15:53:23.285212,/muse/eeg,"[799.0109890109891, 759.5238095238095, 637.4358974358975, 796.5934065934066]"
2025-11-24T15:53:23.378912,/muse/eegAux,"[nan, nan, 0.0, 0.0]"
2025-11-24T15:53:23.487257,/muse/eeg,"[811.5018315018315, 772.8205128205128, 614.0659340659341, 812.7106227106227]"
2025-11-24T15:53:23.518033,/muse/eegAux,"[nan, nan, 0.0, 0.0]"
2025-11-24T15:53:23.580122,/muse/eeg,"[811.5018315018315, 772.8205128205128, 614.0659340659341, 812.7106227106227]"
2025-11-24T15:53:23.610989,/muse/eegAux,"[nan, nan, 0.0, 0.0]"
2025-11-24T15:53:23.688096,/muse/eeg,"[811.5018315018315, 772.8205128205128, 614.0659340659341, 812.7106227106227]"
2025-11-24T15:53:23.797339,/muse/eegAux,"[nan, nan, 0.0, 0.0]"
2025-11-24T15:53:23.843934,/muse/eeg,"[811.5018315018315, 772.8205128205128, 614.0659340659341, 812.7106227106227]"
2025-11-24T15:53:23.908012,/muse/eegAux,"[nan, nan, 0.0, 0.0]"
2025-11-24T15:53:23.970471,/muse/eeg,"[811.5018315018315, 772.8205128205128, 614.0659340659341, 812.7106227106227]"
2025-11-24T15:53:24.016880,/muse/eegAux,"[nan, nan, 0.0, 0.0]"
2025-11-24T15:53:24.063687,/muse/eeg,"[811.5018315018315, 772.8205128205128, 614.0659340659341, 812.7106227106227]"
2025-11-24T15:53:24.125554,/muse/eegAux,"[nan, nan, 0.0, 0.0]"
2025-11-24T15:53:24.220726,/muse/eeg,"[811.5018315018315, 772.8205128205128, 614.0659340659341, 812.7106227106227]"
2025-11-24T15:53:24.268360,/muse/eegAux,"[nan, nan, 0.0, 0.0]"
2025-11-24T15:53:24.330888,/muse/elements/alpha_absolute,"[0.6881312051729472, 0.8185540857892387, 0.9472492683000144, 0.6391125175971135]"
2025-11-24T15:53:24.393543,/muse/elements/beta_absolute,"[0.5391503622402504, 0.5806298635853272, 0.9853979264338821, 0.6482900174452537]"
2025-11-24T15:53:24.440064,/muse/elements/delta_absolute,"[0.5404790993659441, 0.7400335754231657, 0.9951193641341841, 1.0585429544015017]"
2025-11-24T15:53:24.517541,/muse/elements/theta_absolute,"[0.8492426709243894, 0.4739228919586257, 0.7240757446562845, 0.7731856197605012]"
2025-11-24T15:53:24.610468,/muse/elements/gamma_absolute,"[0.07129643096900094, 0.11129326772015989, 0.5136139700309592, 0.07878924279173333]"
2025-11-24T15:53:24.657739,/muse/elements/alpha_relative,"[0.24318035524128145, 0.32666319365257934, 0.23952359640232274, 0.15910723344946534]"
2025-11-24T15:53:24.765819,/muse/elements/beta_relative,"[0.17256298540424253, 0.1888756541437024, 0.2615152154619236, 0.16250526048320824]"
2025-11-24T15:53:24.796520,/muse/elements/delta_relative,"[0.1730917555681185, 0.27263379777229807, 0.26743509587853037, 0.4179461809146888]"
2025-11-24T15:53:24.858403,/muse/elements/theta_relative,"[0.3524032900115605, 0.14773010613452722, 0.14327643941486778, 0.21665216160059866]"
2025-11-24T15:53:24.937382,/muse/elements/gamma_relative,"[0.05876161377479707, 0.06409724829689303, 0.08824965284235554, 0.043789163552039]"
2025-11-24T15:53:25.014738,/muse/is_good,"[0.0, 1.0, 0.0, 1.0]"
2025-11-24T15:53:25.045703,/muse/hsi,"[1.0, 1.0, 2.0, 1.0]"
2025-11-24T15:53:25.092552,/muse/eeg,"[804.6520146520147, 786.9230769230769, 541.941391941392, 801.4285714285714]"
2025-11-24T15:53:25.138537,/muse/eegAux,"[nan, nan, 0.0, 0.0]"
2025-11-24T15:53:25.169056,/muse/eeg,"[804.6520146520147, 786.9230769230769, 541.941391941392, 801.4285714285714]"
2025-11-24T15:53:25.215151,/muse/eegAux,"[nan, nan, 0.0, 0.0]"
2025-11-24T15:53:25.230602,/muse/eeg,"[804.6520146520147, 786.9230769230769, 541.941391941392, 801.4285714285714]"
2025-11-24T15:53:25.293044,/muse/eegAux,"[nan, nan, 0.0, 0.0]"
2025-11-24T15:53:25.339190,/muse/gyro,"[3.790740966796875, -3.686065673828125, 1.33087158203125]"
2025-11-24T15:53:25.385586,/muse/gyro,"[4.20196533203125, -4.2169189453125, 1.2860107421875]"
2025-11-24T15:53:25.432429,/muse/gyro,"[4.20196533203125, -4.2169189453125, 1.2860107421875]"
2025-11-24T15:53:25.510922,/muse/acc,"[0.2371826171875, -0.14361572265625, 0.9656982421875]"
2025-11-24T15:53:25.604384,/muse/acc,"[0.2371826171875, -0.14361572265625, 0.9656982421875]"
2025-11-24T15:53:25.712158,/muse/acc,"[0.2371826171875, -0.14361572265625, 0.9656982421875]"
2025-11-24T15:53:25.758381,/muse/eeg,"[814.7252747252747, 776.4468864468864, 574.981684981685, 815.934065934066]"
2025-11-24T15:53:25.867164,/muse/eegAux,"[nan, nan, 0.0, 0.0]"
2025-11-24T15:53:25.930469,/muse/eeg,"[783.2967032967033, 780.4761904761905, 486.7399267399268, 810.2930402930403]"
2025-11-24T15:53:25.992549,/muse/eegAux,"[nan, nan, 0.0, 0.0]"
2025-11-24T15:53:26.037879,/muse/eeg,"[789.3406593406594, 767.985347985348, 368.6813186813187, 799.0109890109891]"
2025-11-24T15:53:26.116294,/muse/eegAux,"[nan, nan, 0.0, 0.0]"
2025-11-24T15:53:26.162918,/muse/eeg,"[788.9377289377289, 766.3736263736264, 243.3699633699634, 794.981684981685]"
2025-11-24T15:53:26.224633,/muse/eegAux,"[nan, nan, 0.0, 0.0]"
2025-11-24T15:53:26.272739,/muse/eeg,"[781.2820512820513, 787.3260073260074, 512.5274725274726, 786.9230769230769]"
2025-11-24T15:53:26.287998,/muse/eegAux,"[nan, nan, 0.0, 0.0]"
2025-11-24T15:53:26.350323,/muse/eeg,"[781.2820512820513, 787.3260073260074, 512.5274725274726, 786.9230769230769]"
2025-11-24T15:53:26.381223,/muse/eegAux,"[nan, nan, 0.0, 0.0]"
2025-11-24T15:53:26.459737,/muse/eeg,"[781.2820512820513, 787.3260073260074, 512.5274725274726, 786.9230769230769]"
2025-11-24T15:53:26.584400,/muse/eegAux,"[nan, nan, 0.0, 0.0]"
2025-11-24T15:53:26.615593,/muse/eeg,"[781.2820512820513, 787.3260073260074, 512.5274725274726, 786.9230769230769]"
2025-11-24T15:53:26.709574,/muse/eegAux,"[nan, nan, 0.0, 0.0]"
2025-11-24T15:53:26.787138,/muse/eeg,"[781.2820512820513, 787.3260073260074, 512.5274725274726, 786.9230769230769]"
2025-11-24T15:53:26.849453,/muse/eegAux,"[nan, nan, 0.0, 0.0]"
2025-11-24T15:53:26.911510,/muse/eeg,"[781.2820512820513, 787.3260073260074, 512.5274725274726, 786.9230769230769]"
2025-11-24T15:53:26.975224,/muse/eegAux,"[nan, nan, 0.0, 0.0]"
2025-11-24T15:53:27.037036,/muse/eeg,"[781.2820512820513, 787.3260073260074, 512.5274725274726, 786.9230769230769]"
2025-11-24T15:53:27.131144,/muse/eeg,"[781.2820512820513, 787.3260073260074, 512.5274725274726, 786.9230769230769]"
2025-11-24T15:53:27.084347,/muse/eegAux,"[nan, nan, 0.0, 0.0]"
2025-11-24T15:53:27.193095,/muse/eegAux,"[nan, nan, 0.0, 0.0]"
2025-11-24T15:53:27.256074,/muse/drlref,"[1618974.358974359, 1596410.2564102563]"
2025-11-24T15:53:27.349535,/muse/drlref,"[1618974.358974359, 1596410.2564102563]"
2025-11-24T15:53:27.380861,/muse/drlref,"[1618974.358974359, 1596410.2564102563]"
2025-11-24T15:53:27.427968,/muse/drlref,"[1618974.358974359, 1596410.2564102563]"
2025-11-24T15:53:27.520284,/muse/drlref,"[1618974.358974359, 1596410.2564102563]"
2025-11-24T15:53:27.566086,/muse/drlref,"[1618974.358974359, 1596410.2564102563]"
2025-11-24T15:53:27.658971,/muse/gyro,"[3.768310546875, -3.78326416015625, 0.538330078125]"
2025-11-24T15:53:27.735827,/muse/gyro,"[3.768310546875, -3.78326416015625, 0.538330078125]"
2025-11-24T15:53:27.797045,/muse/gyro,"[3.768310546875, -3.78326416015625, 0.538330078125]"
2025-11-24T15:53:27.888428,/muse/acc,"[0.24127197265625, -0.15277099609375, 0.96051025390625]"
2025-11-24T15:53:27.873695,/muse/acc,"[0.24127197265625, -0.15277099609375, 0.96051025390625]"
2025-11-24T15:53:27.982478,/muse/acc,"[0.24127197265625, -0.15277099609375, 0.96051025390625]"
2025-11-24T15:53:28.059119,/muse/eeg,"[794.1758241758242, 782.4908424908425, 128.53479853479854, 794.1758241758242]"
2025-11-24T15:53:28.151382,/muse/eegAux,"[nan, nan, 0.0, 0.0]"
2025-11-24T15:53:28.181999,/muse/eeg,"[785.3113553113553, 786.1172161172161, 435.5677655677656, 790.952380952381]"
2025-11-24T15:53:28.197418,/muse/eegAux,"[nan, nan, 0.0, 0.0]"
2025-11-24T15:53:28.274489,/muse/eeg,"[805.054945054945, 782.893772893773, 238.53479853479854, 808.2783882783883]"
2025-11-24T15:53:28.305941,/muse/eegAux,"[nan, nan, 0.0, 0.0]"
2025-11-24T15:53:28.367035,/muse/eeg,"[781.2820512820513, 777.2527472527473, 38.27838827838828, 792.1611721611722]"
2025-11-24T15:53:28.428429,/muse/eegAux,"[nan, nan, 0.0, 0.0]"
2025-11-24T15:53:28.489635,/muse/eeg,"[823.992673992674, 793.3699633699634, 545.1648351648352, 801.8315018315019]"
2025-11-24T15:53:28.567859,/muse/eegAux,"[nan, nan, 0.0, 0.0]"
2025-11-24T15:53:28.629921,/muse/eeg,"[823.992673992674, 793.3699633699634, 545.1648351648352, 801.8315018315019]"
2025-11-24T15:53:28.675857,/muse/eegAux,"[nan, nan, 0.0, 0.0]"
2025-11-24T15:53:28.721716,/muse/eeg,"[823.992673992674, 793.3699633699634, 545.1648351648352, 801.8315018315019]"
2025-11-24T15:53:28.784225,/muse/eegAux,"[nan, nan, 0.0, 0.0]"
2025-11-24T15:53:28.831086,/muse/eeg,"[823.992673992674, 793.3699633699634, 545.1648351648352, 801.8315018315019]"
2025-11-24T15:53:28.893856,/muse/eegAux,"[nan, nan, 0.0, 0.0]"
2025-11-24T15:53:29.047722,/muse/eeg,"[823.992673992674, 793.3699633699634, 545.1648351648352, 801.8315018315019]"
2025-11-24T15:53:29.108318,/muse/eegAux,"[nan, nan, 0.0, 0.0]"
2025-11-24T15:53:29.159985,/muse/eeg,"[823.992673992674, 793.3699633699634, 545.1648351648352, 801.8315018315019]"
2025-11-24T15:53:29.201873,/muse/eegAux,"[nan, nan, 0.0, 0.0]"
2025-11-24T15:53:29.216834,/muse/eeg,"[823.992673992674, 793.3699633699634, 545.1648351648352, 801.8315018315019]"
2025-11-24T15:53:29.276234,/muse/eegAux,"[nan, nan, 0.0, 0.0]"
2025-11-24T15:53:29.368814,/muse/elements/alpha_absolute,"[0.5494957905843458, 0.8185540857892387, 0.9472492683000144, 0.6442806804559955]"
2025-11-24T15:53:29.445970,/muse/elements/beta_absolute,"[0.5080670677456014, 0.5780108510595302, 0.9853979264338821, 0.6601586400723516]"
2025-11-24T15:53:29.493543,/muse/elements/delta_absolute,"[0.8219106279426945, 0.7498294435462699, 0.9951193641341841, 1.1260939377366124]"
2025-11-24T15:53:29.508868,/muse/elements/theta_absolute,"[0.745603024152779, 0.43301680482235216, 0.7240757446562845, 0.8071361459873595]"
2025-11-24T15:53:29.617265,/muse/elements/gamma_absolute,"[0.05993691883884554, 0.11402129972353524, 0.5136139700309592, 0.10059251281606128]"
2025-11-24T15:53:29.662686,/muse/elements/alpha_relative,"[0.17617549068159946, 0.32922847135862865, 0.23952359640232274, 0.14682642945587077]"
2025-11-24T15:53:29.803106,/muse/elements/delta_relative,"[0.3298832975134709, 0.28104298096891966, 0.26743509587853037, 0.4452639092896071]"
2025-11-24T15:53:29.740111,/muse/elements/beta_relative,"[0.16014624752415527, 0.18921438512858726, 0.2615152154619236, 0.15229379091034956]"
2025-11-24T15:53:29.880409,/muse/elements/theta_relative,"[0.2767277572393066, 0.1355064926792671, 0.14327643941486778, 0.21362875191822034]"
2025-11-24T15:53:29.912342,/muse/elements/gamma_relative,"[0.05706720704146779, 0.06500766986459734, 0.08824965284235554, 0.041987118425952354]"
2025-11-24T15:53:29.958403,/muse/is_good,"[1.0, 1.0, 0.0, 1.0]"
2025-11-24T15:53:30.020523,/muse/hsi,"[1.0, 1.0, 2.0, 1.0]"
2025-11-24T15:53:30.050088,/muse/eeg,"[807.4725274725275, 791.7582417582418, 485.12820512820514, 807.0695970695971]"
2025-11-24T15:53:30.158811,/muse/eegAux,"[nan, nan, 0.0, 0.0]"
2025-11-24T15:53:30.219990,/muse/eeg,"[807.8754578754579, 777.6556776556777, 211.53846153846155, 803.4432234432235]"
2025-11-24T15:53:30.265394,/muse/eegAux,"[nan, nan, 0.0, 0.0]"
2025-11-24T15:53:30.313214,/muse/eeg,"[832.8571428571429, 779.6703296703297, 551.2087912087912, 829.2307692307693]"
2025-11-24T15:53:30.469537,/muse/eeg,"[832.8571428571429, 779.6703296703297, 551.2087912087912, 829.2307692307693]"
2025-11-24T15:53:30.407594,/muse/eegAux,"[nan, nan, 0.0, 0.0]"
2025-11-24T15:53:30.548826,/muse/eegAux,"[nan, nan, 0.0, 0.0]"
2025-11-24T15:53:30.623805,/muse/eegAux,"[nan, nan, 0.0, 0.0]"
2025-11-24T15:53:30.578648,/muse/eeg,"[832.8571428571429, 779.6703296703297, 551.2087912087912, 829.2307692307693]"
2025-11-24T15:53:30.686295,/muse/eeg,"[832.8571428571429, 779.6703296703297, 551.2087912087912, 829.2307692307693]"
2025-11-24T15:53:30.748144,/muse/eegAux,"[nan, nan, 0.0, 0.0]"
2025-11-24T15:53:30.825664,/muse/eeg,"[832.8571428571429, 779.6703296703297, 551.2087912087912, 829.2307692307693]"
2025-11-24T15:53:30.872491,/muse/eegAux,"[nan, nan, 0.0, 0.0]"
2025-11-24T15:53:30.919037,/muse/eeg,"[832.8571428571429, 779.6703296703297, 551.2087912087912, 829.2307692307693]"
2025-11-24T15:53:30.965078,/muse/eegAux,"[nan, nan, 0.0, 0.0]"
2025-11-24T15:53:31.009989,/muse/eeg,"[832.8571428571429, 779.6703296703297, 551.2087912087912, 829.2307692307693]"
2025-11-24T15:53:31.071394,/muse/eegAux,"[nan, nan, 0.0, 0.0]"
2025-11-24T15:53:31.209729,/muse/eegAux,"[nan, nan, 0.0, 0.0]"
2025-11-24T15:53:31.147566,/muse/eeg,"[832.8571428571429, 779.6703296703297, 551.2087912087912, 829.2307692307693]"
2025-11-24T15:53:31.287655,/muse/eeg,"[832.8571428571429, 779.6703296703297, 551.2087912087912, 829.2307692307693]"
2025-11-24T15:53:31.364837,/muse/eegAux,"[nan, nan, 0.0, 0.0]"
2025-11-24T15:53:31.411157,/muse/eeg,"[832.8571428571429, 779.6703296703297, 551.2087912087912, 829.2307692307693]"
2025-11-24T15:53:31.442368,/muse/eegAux,"[nan, nan, 0.0, 0.0]"
2025-11-24T15:53:31.598919,/muse/eegAux,"[nan, nan, 0.0, 0.0]"
2025-11-24T15:53:31.536705,/muse/eeg,"[832.8571428571429, 779.6703296703297, 551.2087912087912, 829.2307692307693]"
2025-11-24T15:53:31.660723,/muse/gyro,"[3.36456298828125, -3.87298583984375, -0.216827392578125]"
2025-11-24T15:53:31.722498,/muse/gyro,"[3.36456298828125, -3.87298583984375, -0.216827392578125]"
2025-11-24T15:53:31.785370,/muse/gyro,"[3.36456298828125, -3.87298583984375, -0.216827392578125]"
2025-11-24T15:53:31.863925,/muse/acc,"[0.2392578125, -0.1500244140625, 0.97357177734375]"
2025-11-24T15:53:31.910748,/muse/acc,"[0.2392578125, -0.1500244140625, 0.97357177734375]"
2025-11-24T15:53:31.956435,/muse/acc,"[0.2392578125, -0.1500244140625, 0.97357177734375]"
2025-11-24T15:53:32.002725,/muse/eeg,"[832.4542124542124, 789.3406593406594, 562.4908424908425, 815.1282051282052]"
2025-11-24T15:53:32.065742,/muse/eegAux,"[nan, nan, 0.0, 0.0]"
2025-11-24T15:53:32.127072,/muse/eeg,"[817.948717948718, 789.7435897435897, 347.32600732600736, 817.948717948718]"
2025-11-24T15:53:32.237149,/muse/eegAux,"[nan, nan, 0.0, 0.0]"
2025-11-24T15:53:32.316360,/muse/eeg,"[798.2051282051282, 780.0732600732601, 415.8241758241758, 805.054945054945]"
2025-11-24T15:53:32.377738,/muse/eegAux,"[nan, nan, 0.0, 0.0]"
2025-11-24T15:53:32.423449,/muse/eeg,"[803.8461538461539, 783.6996336996338, 120.87912087912088, 806.2637362637363]"
2025-11-24T15:53:32.486169,/muse/eegAux,"[nan, nan, 0.0, 0.0]"
2025-11-24T15:53:32.548560,/muse/eeg,"[803.8461538461539, 783.6996336996338, 120.87912087912088, 806.2637362637363]"
2025-11-24T15:53:32.689392,/muse/eegAux,"[nan, nan, 0.0, 0.0]"
2025-11-24T15:53:32.735422,/muse/eeg,"[803.8461538461539, 783.6996336996338, 120.87912087912088, 806.2637362637363]"
2025-11-24T15:53:32.875239,/muse/eegAux,"[nan, nan, 0.0, 0.0]"
2025-11-24T15:53:32.936745,/muse/eeg,"[803.8461538461539, 783.6996336996338, 120.87912087912088, 806.2637362637363]"
2025-11-24T15:53:32.999644,/muse/eegAux,"[nan, nan, 0.0, 0.0]"
2025-11-24T15:53:33.060903,/muse/eeg,"[803.8461538461539, 783.6996336996338, 120.87912087912088, 806.2637362637363]"
2025-11-24T15:53:33.170265,/muse/eegAux,"[nan, nan, 0.0, 0.0]"
2025-11-24T15:53:33.231508,/muse/eeg,"[803.8461538461539, 783.6996336996338, 120.87912087912088, 806.2637362637363]"
2025-11-24T15:53:33.293105,/muse/eegAux,"[nan, nan, 0.0, 0.0]"
2025-11-24T15:53:33.387008,/muse/eegAux,"[nan, nan, 0.0, 0.0]"
2025-11-24T15:53:33.355446,/muse/eeg,"[803.8461538461539, 783.6996336996338, 120.87912087912088, 806.2637362637363]"
2025-11-24T15:53:33.418301,/muse/eeg,"[803.8461538461539, 783.6996336996338, 120.87912087912088, 806.2637362637363]"
2025-11-24T15:53:33.464616,/muse/eegAux,"[nan, nan, 0.0, 0.0]"
2025-11-24T15:53:33.510253,/muse/eeg,"[803.8461538461539, 783.6996336996338, 120.87912087912088, 806.2637362637363]"
2025-11-24T15:53:33.541989,/muse/eegAux,"[nan, nan, 0.0, 0.0]"
2025-11-24T15:53:33.619664,/muse/gyro,"[3.050537109375, -3.790740966796875, -0.22430419921875]"
2025-11-24T15:53:33.807573,/muse/gyro,"[3.207550048828125, -3.39447021484375, 0.299072265625]"
2025-11-24T15:53:33.744646,/muse/gyro,"[3.207550048828125, -3.39447021484375, 0.299072265625]"
2025-11-24T15:53:33.900374,/muse/acc,"[0.2440185546875, -0.14642333984375, 0.97186279296875]"
2025-11-24T15:53:33.961502,/muse/acc,"[0.2440185546875, -0.14642333984375, 0.97186279296875]"
2025-11-24T15:53:34.039864,/muse/acc,"[0.2440185546875, -0.14642333984375, 0.97186279296875]"
2025-11-24T15:53:34.086046,/muse/eeg,"[803.040293040293, 785.7142857142858, 450.0732600732601, 793.7728937728938]"
2025-11-24T15:53:34.132036,/muse/eegAux,"[nan, nan, 0.0, 0.0]"
2025-11-24T15:53:34.209228,/muse/elements/alpha_absolute,"[0.4806370916883309, 0.8185540857892387, 0.9472492683000144, 0.6442806804559955]"
2025-11-24T15:53:34.269802,/muse/elements/beta_absolute,"[0.5208719321696506, 0.5793810611899708, 0.9853979264338821, 0.6708240994393179]"
2025-11-24T15:53:34.316887,/muse/elements/delta_absolute,"[0.8885203708451411, 0.7480188167502356, 0.9951193641341841, 1.1470824661127843]"
2025-11-24T15:53:34.394120,/muse/elements/theta_absolute,"[0.7166108941598448, 0.3944777218658603, 0.7240757446562845, 0.8098303508884946]"
2025-11-24T15:53:34.423905,/muse/elements/gamma_absolute,"[0.05496538306741856, 0.11277566929951226, 0.5136139700309592, 0.11775248727471634]"
2025-11-24T15:53:34.470696,/muse/elements/alpha_relative,"[0.14810446564749005, 0.33331633373443736, 0.23952359640232274, 0.14270856273702953]"
2025-11-24T15:53:34.578744,/muse/elements/beta_relative,"[0.1624811536736059, 0.19216910683126498, 0.2615152154619236, 0.1517027491870817]"
"
2025-11-24T15:53:34.672014,/muse/elements/theta_relative,"[0.25500104256683215, 0.1255394530819609, 0.14327643941486778, 0.2089294700499843]"
2025-11-24T15:53:34.733657,/muse/elements/gamma_relative,"[0.05557717208624734, 0.06562633932403088, 0.08824965284235554, 0.0424543151102483]"
2025-11-24T15:53:34.826900,/muse/is_good,"[0.0, 1.0, 0.0, 1.0]"
2025-11-24T15:53:34.857976,/muse/hsi,"[1.0, 1.0, 2.0, 1.0]"
2025-11-24T15:53:34.949679,/muse/eeg,"[788.9377289377289, 782.4908424908425, 387.61904761904765, 801.4285714285714]"
2025-11-24T15:53:34.965577,/muse/eegAux,"[nan, nan, 0.0, 0.0]"
2025-11-24T15:53:35.089030,/muse/eeg,"[788.9377289377289, 782.4908424908425, 387.61904761904765, 801.4285714285714]"
2025-11-24T15:53:35.182328,/muse/eegAux,"[nan, nan, 0.0, 0.0]"
2025-11-24T15:53:35.198042,/muse/eeg,"[788.9377289377289, 782.4908424908425, 387.61904761904765, 801.4285714285714]"
2025-11-24T15:53:35.245026,/muse/eegAux,"[nan, nan, 0.0, 0.0]"
2025-11-24T15:53:35.323194,/muse/eeg,"[788.9377289377289, 782.4908424908425, 387.61904761904765, 801.4285714285714]"
2025-11-24T15:53:35.369764,/muse/eegAux,"[nan, nan, 0.0, 0.0]"
2025-11-24T15:53:35.478309,/muse/eeg,"[788.9377289377289, 782.4908424908425, 387.61904761904765, 801.4285714285714]"
2025-11-24T15:53:35.524001,/muse/eegAux,"[nan, nan, 0.0, 0.0]"
2025-11-24T15:53:35.570234,/muse/eeg,"[788.9377289377289, 782.4908424908425, 387.61904761904765, 801.4285714285714]"
2025-11-24T15:53:35.661748,/muse/eegAux,"[nan, nan, 0.0, 0.0]"
2025-11-24T15:53:35.771592,/muse/eeg,"[788.9377289377289, 782.4908424908425, 387.61904761904765, 801.4285714285714]"
2025-11-24T15:53:35.818552,/muse/eegAux,"[nan, nan, 0.0, 0.0]"
2025-11-24T15:53:35.927711,/muse/eeg,"[788.9377289377289, 782.4908424908425, 387.61904761904765, 801.4285714285714]"
2025-11-24T15:53:36.053372,/muse/eegAux,"[nan, nan, 0.0, 0.0]"
2025-11-24T15:53:36.100350,/muse/eeg,"[788.9377289377289, 782.4908424908425, 387.61904761904765, 801.4285714285714]"
2025-11-24T15:53:36.147360,/muse/eegAux,"[nan, nan, 0.0, 0.0]"
2025-11-24T15:53:36.163432,/muse/eeg,"[788.9377289377289, 782.4908424908425, 387.61904761904765, 801.4285714285714]"
2025-11-24T15:53:36.255117,/muse/eegAux,"[nan, nan, 0.0, 0.0]"
2025-11-24T15:53:36.410809,/muse/eeg,"[788.9377289377289, 782.4908424908425, 387.61904761904765, 801.4285714285714]"
2025-11-24T15:53:36.459668,/muse/eegAux,"[nan, nan, 0.0, 0.0]"
2025-11-24T15:53:36.489449,/muse/drlref,"[1618974.358974359, 1596410.2564102563]"
2025-11-24T15:53:36.550742,/muse/drlref,"[1618974.358974359, 1596410.2564102563]"
2025-11-24T15:53:36.596919,/muse/drlref,"[1618974.358974359, 1596410.2564102563]"
2025-11-24T15:53:36.658281,/muse/drlref,"[1618974.358974359, 1596410.2564102563]"
2025-11-24T15:53:36.735073,/muse/drlref,"[1618974.358974359, 1596410.2564102563]"
2025-11-24T15:53:36.781306,/muse/drlref,"[1618974.358974359, 1596410.2564102563]"
2025-11-24T15:53:36.859682,/muse/gyro,"[3.03558349609375, -3.790740966796875, 0.710296630859375]"
2025-11-24T15:53:36.905851,/muse/gyro,"[3.03558349609375, -3.790740966796875, 0.710296630859375]"
2025-11-24T15:53:36.967359,/muse/gyro,"[3.03558349609375, -3.790740966796875, 0.710296630859375]"
2025-11-24T15:53:37.014220,/muse/acc,"[0.2412109375, -0.153076171875, 0.96197509765625]"
2025-11-24T15:53:37.123931,/muse/acc,"[0.2412109375, -0.153076171875, 0.96197509765625]"
2025-11-24T15:53:37.077174,/muse/acc,"[0.2412109375, -0.153076171875, 0.96197509765625]"
2025-11-24T15:53:37.262864,/muse/eeg,"[801.8315018315019, 783.2967032967033, 802.6373626373627, 786.1172161172161]"
2025-11-24T15:53:37.308751,/muse/eegAux,"[nan, nan, 0.0, 0.0]"
2025-11-24T15:53:37.386330,/muse/eeg,"[770.8058608058608, 778.4615384615385, 365.8608058608059, 777.6556776556777]"
2025-11-24T15:53:37.479405,/muse/eegAux,"[nan, nan, 0.0, 0.0]"
2025-11-24T15:53:37.541278,/muse/eeg,"[778.4615384615385, 780.4761904761905, 655.9706959706959, 784.1025641025641]"
2025-11-24T15:53:37.601972,/muse/eegAux,"[nan, nan, 0.0, 0.0]"
2025-11-24T15:53:37.648636,/muse/eeg,"[776.0439560439561, 768.7912087912088, 427.1062271062271, 786.1172161172161]"
2025-11-24T15:53:37.709525,/muse/eegAux,"[nan, nan, 0.0, 0.0]"
2025-11-24T15:53:37.755963,/muse/eeg,"[772.8205128205128, 766.7765567765568, 475.8608058608059, 793.3699633699634]"
2025-11-24T15:53:37.818617,/muse/eegAux,"[nan, nan, 0.0, 0.0]"
2025-11-24T15:53:37.881281,/muse/eeg,"[770.0, 779.6703296703297, 276.8131868131868, 785.7142857142858]"
2025-11-24T15:53:37.959754,/muse/eegAux,"[nan, nan, 0.0, 0.0]"
2025-11-24T15:53:37.991605,/muse/eeg,"[770.0, 779.6703296703297, 276.8131868131868, 785.7142857142858]"
2025-11-24T15:53:38.038380,/muse/eegAux,"[nan, nan, 0.0, 0.0]"
2025-11-24T15:53:38.084613,/muse/eeg,"[770.0, 779.6703296703297, 276.8131868131868, 785.7142857142858]"
2025-11-24T15:53:38.130615,/muse/eegAux,"[nan, nan, 0.0, 0.0]"
2025-11-24T15:53:38.193373,/muse/eeg,"[770.0, 779.6703296703297, 276.8131868131868, 785.7142857142858]"
2025-11-24T15:53:38.256229,/muse/eegAux,"[nan, nan, 0.0, 0.0]"
2025-11-24T15:53:38.302435,/muse/eeg,"[770.0, 779.6703296703297, 276.8131868131868, 785.7142857142858]"
2025-11-24T15:53:38.333071,/muse/eegAux,"[nan, nan, 0.0, 0.0]"
2025-11-24T15:53:38.425396,/muse/eeg,"[770.0, 779.6703296703297, 276.8131868131868, 785.7142857142858]"
2025-11-24T15:53:38.519860,/muse/eegAux,"[nan, nan, 0.0, 0.0]"
2025-11-24T15:53:38.582534,/muse/eeg,"[770.0, 779.6703296703297, 276.8131868131868, 785.7142857142858]"
2025-11-24T15:53:38.676750,/muse/eegAux,"[nan, nan, 0.0, 0.0]"
2025-11-24T15:53:38.769500,/muse/gyro,"[3.8580322265625, -2.5421142578125, 0.605621337890625]"
2025-11-24T15:53:38.800473,/muse/gyro,"[3.8580322265625, -2.5421142578125, 0.605621337890625]"
2025-11-24T15:53:38.846408,/muse/gyro,"[3.8580322265625, -2.5421142578125, 0.605621337890625]"
2025-11-24T15:53:38.908151,/muse/acc,"[0.24609375, -0.15069580078125, 0.962158203125]"
2025-11-24T15:53:38.970106,/muse/acc,"[0.241455078125, -0.15667724609375, 0.96563720703125]"
2025-11-24T15:53:39.016766,/muse/acc,"[0.241455078125, -0.15667724609375, 0.96563720703125]"
2025-11-24T15:53:39.142115,/muse/eegAux,"[nan, nan, 0.0, 0.0]"
2025-11-24T15:53:39.078027,/muse/eeg,"[775.2380952380953, 782.893772893773, 164.7985347985348, 777.2527472527473]"
2025-11-24T15:53:39.187858,/muse/eeg,"[775.2380952380953, 782.893772893773, 164.7985347985348, 777.2527472527473]"
2025-11-24T15:53:39.312849,/muse/eegAux,"[nan, nan, 0.0, 0.0]"
2025-11-24T15:53:39.405844,/muse/eeg,"[775.2380952380953, 782.893772893773, 164.7985347985348, 777.2527472527473]"
2025-11-24T15:53:39.451784,/muse/eegAux,"[nan, nan, 0.0, 0.0]"
2025-11-24T15:53:39.543741,/muse/elements/alpha_absolute,"[0.4382147055337743, 0.8185540857892387, 0.9472492683000144, 0.637470252843958]"
2025-11-24T15:53:39.589359,/muse/elements/beta_absolute,"[0.5292448711180403, 0.5828658389290844, 0.9853979264338821, 0.6928070283778505]"
2025-11-24T15:53:39.636742,/muse/elements/delta_absolute,"[0.9629887417196317, 0.7303595529809499, 0.9951193641341841, 1.1738346781152813]"
2025-11-24T15:53:39.731248,/muse/elements/theta_absolute,"[0.6883599329583868, 0.3739792307265534, 0.7240757446562845, 0.8105616180924213]"
2025-11-24T15:53:39.840371,/muse/elements/alpha_relative,"[0.12877369079533368, 0.33893531208459576, 0.23952359640232274, 0.13552558440414983]"
2025-11-24T15:53:39.793228,/muse/elements/gamma_absolute,"[0.04629628377136669, 0.10578210823864397, 0.5136139700309592, 0.13529978428794437]"
2025-11-24T15:53:39.963712,/muse/elements/delta_relative,"[0.43112298684452655, 0.27664465613926575, 0.26743509587853037, 0.4659997824729666]"
2025-11-24T15:53:39.917459,/muse/elements/beta_relative,"[0.15880249036371893, 0.19698292021211553, 0.2615152154619236, 0.15394233307378957]"
2025-11-24T15:53:40.077597,/muse/elements/theta_relative,"[0.22907219148770577, 0.12177046465771285, 0.14327643941486778, 0.2018889986305519]"
2025-11-24T15:53:40.136080,/muse/elements/gamma_relative,"[0.052228640508715174, 0.06566664690630997, 0.08824965284235554, 0.04264330141854217]"
2025-11-24T15:53:40.167563,/muse/is_good,"[1.0, 1.0, 0.0, 1.0]"
2025-11-24T15:53:40.229189,/muse/hsi,"[1.0, 1.0, 2.0, 1.0]"
2025-11-24T15:53:40.338337,/muse/eegAux,"[nan, nan, 0.0, 0.0]"
2025-11-24T15:53:40.385411,/muse/eeg,"[773.6263736263736, 780.0732600732601, 633.4065934065934, 788.1318681318681]"
2025-11-24T15:53:40.292648,/muse/eeg,"[773.6263736263736, 780.0732600732601, 633.4065934065934, 788.1318681318681]"
2025-11-24T15:53:40.494344,/muse/eegAux,"[nan, nan, 0.0, 0.0]"
2025-11-24T15:53:40.541097,/muse/eeg,"[773.6263736263736, 780.0732600732601, 633.4065934065934, 788.1318681318681]"
2025-11-24T15:53:40.618861,/muse/eegAux,"[nan, nan, 0.0, 0.0]"
2025-11-24T15:53:40.680467,/muse/eeg,"[773.6263736263736, 780.0732600732601, 633.4065934065934, 788.1318681318681]"
2025-11-24T15:53:40.743547,/muse/eegAux,"[nan, nan, 0.0, 0.0]"
2025-11-24T15:53:40.866207,/muse/eeg,"[773.6263736263736, 780.0732600732601, 633.4065934065934, 788.1318681318681]"
2025-11-24T15:53:40.928075,/muse/eegAux,"[nan, nan, 0.0, 0.0]"
2025-11-24T15:53:40.991586,/muse/eeg,"[773.6263736263736, 780.0732600732601, 633.4065934065934, 788.1318681318681]"
2025-11-24T15:53:41.036933,/muse/eegAux,"[nan, nan, 0.0, 0.0]"
2025-11-24T15:53:41.084292,/muse/eeg,"[773.6263736263736, 780.0732600732601, 633.4065934065934, 788.1318681318681]"
2025-11-24T15:53:41.193835,/muse/eegAux,"[nan, nan, 0.0, 0.0]"
2025-11-24T15:53:41.287469,/muse/eeg,"[773.6263736263736, 780.0732600732601, 633.4065934065934, 788.1318681318681]"
2025-11-24T15:53:41.364963,/muse/eegAux,"[nan, nan, 0.0, 0.0]"
2025-11-24T15:53:41.411296,/muse/eeg,"[773.6263736263736, 780.0732600732601, 633.4065934065934, 788.1318681318681]"
2025-11-24T15:53:41.489351,/muse/eegAux,"[nan, nan, 0.0, 0.0]"
2025-11-24T15:53:41.519708,/muse/gyro,"[3.416900634765625, -3.566436767578125, 1.1962890625]"
2025-11-24T15:53:41.597843,/muse/gyro,"[3.416900634765625, -3.566436767578125, 1.1962890625]"
2025-11-24T15:53:41.645036,/muse/gyro,"[3.416900634765625, -3.566436767578125, 1.1962890625]"
2025-11-24T15:53:41.722703,/muse/acc,"[0.2415771484375, -0.1551513671875, 0.968017578125]"
2025-11-24T15:53:41.768459,/muse/acc,"[0.2415771484375, -0.1551513671875, 0.968017578125]"
2025-11-24T15:53:41.830331,/muse/acc,"[0.2415771484375, -0.1551513671875, 0.968017578125]"
2025-11-24T15:53:41.861259,/muse/eeg,"[790.952380952381, 766.7765567765568, 717.6190476190476, 800.2197802197802]"
2025-11-24T15:53:41.923373,/muse/eegAux,"[nan, nan, 0.0, 0.0]"
2025-11-24T15:53:42.017449,/muse/eeg,"[790.952380952381, 766.7765567765568, 717.6190476190476, 800.2197802197802]"
2025-11-24T15:53:42.079257,/muse/eegAux,"[nan, nan, 0.0, 0.0]"
2025-11-24T15:53:42.125890,/muse/eeg,"[790.952380952381, 766.7765567765568, 717.6190476190476, 800.2197802197802]"
2025-11-24T15:53:42.187578,/muse/eegAux,"[nan, nan, 0.0, 0.0]"
2025-11-24T15:53:42.234021,/muse/eeg,"[790.952380952381, 766.7765567765568, 717.6190476190476, 800.2197802197802]"
2025-11-24T15:53:42.280054,/muse/eegAux,"[nan, nan, 0.0, 0.0]"
2025-11-24T15:53:42.342220,/muse/eeg,"[790.952380952381, 766.7765567765568, 717.6190476190476, 800.2197802197802]"
2025-11-24T15:53:42.404451,/muse/eegAux,"[nan, nan, 0.0, 0.0]"
2025-11-24T15:53:42.435288,/muse/eeg,"[790.952380952381, 766.7765567765568, 717.6190476190476, 800.2197802197802]"
2025-11-24T15:53:42.497376,/muse/eegAux,"[nan, nan, 0.0, 0.0]"
2025-11-24T15:53:42.559295,/muse/eeg,"[790.952380952381, 766.7765567765568, 717.6190476190476, 800.2197802197802]"
2025-11-24T15:53:42.621260,/muse/eegAux,"[nan, nan, 0.0, 0.0]"
2025-11-24T15:53:42.667474,/muse/eeg,"[790.952380952381, 766.7765567765568, 717.6190476190476, 800.2197802197802]"
2025-11-24T15:53:42.730154,/muse/eegAux,"[nan, nan, 0.0, 0.0]"
2025-11-24T15:53:42.822816,/muse/eegAux,"[nan, nan, 0.0, 0.0]"
2025-11-24T15:53:42.791645,/muse/eeg,"[790.952380952381, 766.7765567765568, 717.6190476190476, 800.2197802197802]"
2025-11-24T15:53:42.885054,/muse/eeg,"[790.952380952381, 766.7765567765568, 717.6190476190476, 800.2197802197802]"
2025-11-24T15:53:42.962487,/muse/eegAux,"[nan, nan, 0.0, 0.0]"
2025-11-24T15:53:42.992868,/muse/eeg,"[790.952380952381, 766.7765567765568, 717.6190476190476, 800.2197802197802]"
2025-11-24T15:53:43.039493,/muse/eegAux,"[nan, nan, 0.0, 0.0]"
2025-11-24T15:53:43.086053,/muse/eeg,"[790.952380952381, 766.7765567765568, 717.6190476190476, 800.2197802197802]"
2025-11-24T15:53:43.131949,/muse/eegAux,"[nan, nan, 0.0, 0.0]"
2025-11-24T15:53:43.193993,/muse/eeg,"[782.4908424908425, 761.941391941392, 503.2600732600733, 790.952380952381]"
2025-11-24T15:53:43.239755,/muse/eegAux,"[nan, nan, 0.0, 0.0]"
2025-11-24T15:53:43.270478,/muse/eeg,"[807.0695970695971, 780.0732600732601, 254.24908424908426, 790.5494505494506]"
2025-11-24T15:53:43.378908,/muse/eegAux,"[nan, nan, 0.0, 0.0]"
2025-11-24T15:53:43.439679,/muse/eeg,"[807.0695970695971, 780.0732600732601, 254.24908424908426, 790.5494505494506]"
2025-11-24T15:53:43.547995,/muse/eegAux,"[nan, nan, 0.0, 0.0]"
2025-11-24T15:53:43.594116,/muse/eeg,"[807.0695970695971, 780.0732600732601, 254.24908424908426, 790.5494505494506]"
2025-11-24T15:53:43.686248,/muse/eeg,"[807.0695970695971, 780.0732600732601, 254.24908424908426, 790.5494505494506]"
2025-11-24T15:53:43.640299,/muse/eegAux,"[nan, nan, 0.0, 0.0]"
2025-11-24T15:53:43.825516,/muse/eegAux,"[nan, nan, 0.0, 0.0]"
2025-11-24T15:53:43.856728,/muse/elements/alpha_absolute,"[0.4129227478057291, 0.8185540857892387, 0.9472492683000144, 0.6394696585228882]"
2025-11-24T15:53:43.980445,/muse/elements/delta_absolute,"[1.010934778660629, 0.6955897444655046, 0.9951193641341841, 1.1835857635858724]"
2025-11-24T15:53:43.949879,/muse/elements/beta_absolute,"[0.5334912389126307, 0.5879606453115733, 0.9853979264338821, 0.7027424561800703]"
2025-11-24T15:53:44.027557,/muse/elements/theta_absolute,"[0.7192119428884738, 0.3687529675312754, 0.7240757446562845, 0.8167252478501055]"
2025-11-24T15:53:44.152383,/muse/elements/gamma_absolute,"[0.0364289455721029, 0.09258370857982635, 0.5136139700309592, 0.14727694722663087]"
2025-11-24T15:53:44.168186,/muse/elements/alpha_relative,"[0.11458049572489869, 0.3466952677560252, 0.23952359640232274, 0.13363236968021525]"
2025-11-24T15:53:44.247120,/muse/elements/beta_relative,"[0.1512443598141763, 0.20387054001388763, 0.2615152154619236, 0.1545910928701877]"
2025-11-24T15:53:44.339979,/muse/elements/delta_relative,"[0.45406991459980484, 0.2612062549013061, 0.26743509587853037, 0.4677650557129116]"
2025-11-24T15:53:44.386040,/muse/elements/theta_relative,"[0.23195294554438645, 0.12306846831839036, 0.14327643941486778, 0.20098667200260653]"
2025-11-24T15:53:44.416575,/muse/elements/gamma_relative,"[0.04815228431673368, 0.06515946901039071, 0.08824965284235554, 0.043024809734078975]"
2025-11-24T15:53:44.447227,/muse/is_good,"[1.0, 1.0, 0.0, 1.0]"
2025-11-24T15:53:44.554531,/muse/hsi,"[1.0, 1.0, 2.0, 1.0]"
2025-11-24T15:53:44.617751,/muse/eeg,"[784.5054945054945, 763.5531135531136, 636.2271062271062, 768.3882783882784]"
2025-11-24T15:53:44.664237,/muse/eegAux,"[nan, nan, 0.0, 0.0]"
2025-11-24T15:53:44.727091,/muse/eegAux,"[nan, nan, 0.0, 0.0]"
2025-11-24T15:53:44.711236,/muse/eeg,"[784.5054945054945, 763.5531135531136, 636.2271062271062, 768.3882783882784]"
2025-11-24T15:53:44.742579,/muse/eeg,"[784.5054945054945, 763.5531135531136, 636.2271062271062, 768.3882783882784]"
2025-11-24T15:53:44.788711,/muse/eegAux,"[nan, nan, 0.0, 0.0]"
2025-11-24T15:53:44.819232,/muse/eeg,"[784.5054945054945, 763.5531135531136, 636.2271062271062, 768.3882783882784]"
2025-11-24T15:53:44.834467,/muse/eegAux,"[nan, nan, 0.0, 0.0]"
2025-11-24T15:53:44.880799,/muse/eeg,"[784.5054945054945, 763.5531135531136, 636.2271062271062, 768.3882783882784]"
2025-11-24T15:53:44.941891,/muse/eegAux,"[nan, nan, 0.0, 0.0]"
2025-11-24T15:53:45.019194,/muse/eeg,"[784.5054945054945, 763.5531135531136, 636.2271062271062, 768.3882783882784]"
2025-11-24T15:53:45.079967,/muse/eegAux,"[nan, nan, 0.0, 0.0]"
2025-11-24T15:53:45.111571,/muse/eeg,"[784.5054945054945, 763.5531135531136, 636.2271062271062, 768.3882783882784]"
2025-11-24T15:53:45.202948,/muse/eegAux,"[nan, nan, 0.0, 0.0]"
2025-11-24T15:53:45.311422,/muse/gyro,"[3.386993408203125, -2.385101318359375, 2.130889892578125]"
2025-11-24T15:53:45.234128,/muse/gyro,"[3.386993408203125, -2.385101318359375, 2.130889892578125]"
2025-11-24T15:53:45.388266,/muse/gyro,"[3.386993408203125, -2.385101318359375, 2.130889892578125]"
2025-11-24T15:53:45.435062,/muse/acc,"[0.24078369140625, -0.1519775390625, 0.965087890625]"
2025-11-24T15:53:45.543319,/muse/acc,"[0.24078369140625, -0.1519775390625, 0.965087890625]"
2025-11-24T15:53:45.637100,/muse/acc,"[0.24078369140625, -0.1519775390625, 0.965087890625]"
2025-11-24T15:53:45.729777,/muse/eeg,"[772.8205128205128, 758.7179487179487, 454.90842490842493, 764.3589743589744]"
2025-11-24T15:53:45.823404,/muse/eegAux,"[nan, nan, 0.0, 0.0]"
2025-11-24T15:53:45.869578,/muse/eeg,"[781.2820512820513, 757.5091575091575, 470.21978021978026, 805.8608058608058]"
2025-11-24T15:53:45.962500,/muse/eegAux,"[nan, nan, 0.0, 0.0]"
2025-11-24T15:53:45.992760,/muse/eeg,"[780.0732600732601, 751.8681318681319, 296.959706959707, 789.7435897435897]"
2025-11-24T15:53:46.070003,/muse/eegAux,"[nan, nan, 0.0, 0.0]"
2025-11-24T15:53:46.132213,/muse/eeg,"[784.9084249084249, 751.4652014652015, 363.0402930402931, 790.1465201465202]"
2025-11-24T15:53:46.210232,/muse/eegAux,"[nan, nan, 0.0, 0.0]"
2025-11-24T15:53:46.303466,/muse/eeg,"[772.4175824175825, 765.5677655677656, 422.6739926739927, 774.0293040293041]"
2025-11-24T15:53:46.427196,/muse/eegAux,"[nan, nan, 0.0, 0.0]"
2025-11-24T15:53:46.536044,/muse/eeg,"[778.8644688644689, 767.985347985348, 485.12820512820514, 805.4578754578755]"
2025-11-24T15:53:46.597367,/muse/eegAux,"[nan, nan, 0.0, 0.0]"
2025-11-24T15:53:46.660854,/muse/eeg,"[778.8644688644689, 767.985347985348, 485.12820512820514, 805.4578754578755]"
2025-11-24T15:53:46.691295,/muse/eegAux,"[nan, nan, 0.0, 0.0]"
2025-11-24T15:53:46.737973,/muse/eeg,"[778.8644688644689, 767.985347985348, 485.12820512820514, 805.4578754578755]"
2025-11-24T15:53:46.892437,/muse/eeg,"[778.8644688644689, 767.985347985348, 485.12820512820514, 805.4578754578755]"
2025-11-24T15:53:46.831046,/muse/eegAux,"[nan, nan, 0.0, 0.0]"
2025-11-24T15:53:46.954158,/muse/eegAux,"[nan, nan, 0.0, 0.0]"
2025-11-24T15:53:47.001277,/muse/eeg,"[778.8644688644689, 767.985347985348, 485.12820512820514, 805.4578754578755]"
2025-11-24T15:53:47.047399,/muse/eegAux,"[nan, nan, 0.0, 0.0]"
2025-11-24T15:53:47.124751,/muse/eeg,"[778.8644688644689, 767.985347985348, 485.12820512820514, 805.4578754578755]"
2025-11-24T15:53:47.248640,/muse/eeg,"[778.8644688644689, 767.985347985348, 485.12820512820514, 805.4578754578755]"
2025-11-24T15:53:47.186224,/muse/eegAux,"[nan, nan, 0.0, 0.0]"
2025-11-24T15:53:47.325701,/muse/eegAux,"[nan, nan, 0.0, 0.0]"
2025-11-24T15:53:47.372074,/muse/drlref,"[1618974.358974359, 1597216.1172161172]"
2025-11-24T15:53:47.464495,/muse/drlref,"[1618974.358974359, 1596410.2564102563]"
2025-11-24T15:53:47.526774,/muse/drlref,"[1618974.358974359, 1596410.2564102563]"
2025-11-24T15:53:47.603546,/muse/drlref,"[1618974.358974359, 1596410.2564102563]"
2025-11-24T15:53:47.649864,/muse/drlref,"[1618974.358974359, 1596410.2564102563]"
2025-11-24T15:53:47.744343,/muse/drlref,"[1618974.358974359, 1596410.2564102563]"
2025-11-24T15:53:47.790486,/muse/gyro,"[3.446807861328125, -3.84307861328125, 2.67669677734375]"
2025-11-24T15:53:47.944424,/muse/gyro,"[3.446807861328125, -3.84307861328125, 2.67669677734375]"
2025-11-24T15:53:47.882738,/muse/gyro,"[3.446807861328125, -3.84307861328125, 2.67669677734375]"
2025-11-24T15:53:47.994935,/muse/acc,"[0.23272705078125, -0.156982421875, 0.96246337890625]"
2025-11-24T15:53:48.071667,/muse/acc,"[0.23272705078125, -0.156982421875, 0.96246337890625]"
2025-11-24T15:53:48.101947,/muse/acc,"[0.23272705078125, -0.156982421875, 0.96246337890625]"
2025-11-24T15:53:48.163711,/muse/eeg,"[784.1025641025641, 770.0, 563.6996336996338, 804.2490842490843]"
2025-11-24T15:53:48.241314,/muse/eegAux,"[nan, nan, 0.0, 0.0]"
2025-11-24T15:53:48.335643,/muse/eeg,"[790.952380952381, 761.1355311355312, 484.32234432234435, 791.3553113553114]"
2025-11-24T15:53:48.382120,/muse/eegAux,"[nan, nan, 0.0, 0.0]"
2025-11-24T15:53:48.443819,/muse/eeg,"[801.8315018315019, 745.8241758241759, 514.5421245421246, 797.8021978021978]"
2025-11-24T15:53:48.521703,/muse/eegAux,"[nan, nan, 0.0, 0.0]"
2025-11-24T15:53:48.582283,/muse/eeg,"[776.4468864468864, 743.4065934065934, 185.34798534798534, 788.1318681318681]"
2025-11-24T15:53:48.613444,/muse/eegAux,"[nan, nan, 0.0, 0.0]"
2025-11-24T15:53:48.673790,/muse/eeg,"[776.4468864468864, 743.4065934065934, 185.34798534798534, 788.1318681318681]"
2025-11-24T15:53:48.766343,/muse/eegAux,"[nan, nan, 0.0, 0.0]"
2025-11-24T15:53:48.797322,/muse/eeg,"[776.4468864468864, 743.4065934065934, 185.34798534798534, 788.1318681318681]"
2025-11-24T15:53:48.828836,/muse/eegAux,"[nan, nan, 0.0, 0.0]"
2025-11-24T15:53:48.873882,/muse/eeg,"[776.4468864468864, 743.4065934065934, 185.34798534798534, 788.1318681318681]"
2025-11-24T15:53:48.889247,/muse/eegAux,"[nan, nan, 0.0, 0.0]"
2025-11-24T15:53:48.951269,/muse/elements/beta_absolute,"[0.524745975031818, 0.5960415783413079, 0.9853979264338821, 0.7005688329237738]"
2025-11-24T15:53:48.935219,/muse/elements/alpha_absolute,"[0.45586991766410456, 0.8185540857892387, 0.9472492683000144, 0.6394696585228882]"
2025-11-24T15:53:49.045329,/muse/elements/theta_absolute,"[0.798166304162166, 0.3601680320784045, 0.7240757446562845, 0.8360630038430299]"
2025-11-24T15:53:49.108056,/muse/elements/gamma_absolute,"[0.020068502618417684, 0.07688509803881967, 0.5136139700309592, 0.1604027211427695]"
2025-11-24T15:53:49.014354,/muse/elements/delta_absolute,"[1.096323327641568, 0.6570316365778589, 0.9951193641341841, 1.1899311844947922]"
2025-11-24T15:53:49.201449,/muse/elements/alpha_relative,"[0.10979908077333536, 0.35488760115662377, 0.23952359640232274, 0.1314522901011255]"
2025-11-24T15:53:49.247699,/muse/elements/beta_relative,"[0.12866924766549792, 0.21260737188812143, 0.2615152154619236, 0.15130989538011602]"
2025-11-24T15:53:49.278269,/muse/elements/delta_relative,"[0.4797910188894888, 0.2446630454303828, 0.26743509587853037, 0.4669062447633632]"
2025-11-24T15:53:49.340649,/muse/elements/theta_relative,"[0.24148774202621856, 0.12351075394695939, 0.14327643941486778, 0.20671000710481613]"
2025-11-24T15:53:49.387179,/muse/elements/gamma_relative,"[0.04025291064545928, 0.0643312275779126, 0.08824965284235554, 0.04362156265057915]"
2025-11-24T15:53:49.480768,/muse/is_good,"[1.0, 1.0, 0.0, 1.0]"
2025-11-24T15:53:49.542882,/muse/hsi,"[1.0, 1.0, 2.0, 1.0]"
2025-11-24T15:53:49.559023,/muse/eeg,"[763.956043956044, 748.6446886446887, 114.83516483516483, 784.1025641025641]"
2025-11-24T15:53:49.635513,/muse/eegAux,"[nan, nan, 0.0, 0.0]"
6886446887, 114.83516483516483, 784.1025641025641]"
2025-11-24T15:53:49.758995,/muse/eegAux,"[nan, nan, 0.0, 0.0]"
2025-11-24T15:53:49.806158,/muse/eeg,"[763.956043956044, 748.6446886446887, 114.83516483516483, 784.1025641025641]"
2025-11-24T15:53:49.853402,/muse/eegAux,"[nan, nan, 0.0, 0.0]"
2025-11-24T15:53:49.978001,/muse/eeg,"[763.956043956044, 748.6446886446887, 114.83516483516483, 784.1025641025641]"
2025-11-24T15:53:50.024116,/muse/eegAux,"[nan, nan, 0.0, 0.0]"
2025-11-24T15:53:50.055335,/muse/eeg,"[763.956043956044, 748.6446886446887, 114.83516483516483, 784.1025641025641]"
2025-11-24T15:53:50.181459,/muse/gyro,"[4.508514404296875, -4.059906005859375, 2.190704345703125]"
2025-11-24T15:53:50.149917,/muse/gyro,"[4.508514404296875, -4.059906005859375, 2.190704345703125]"
2025-11-24T15:53:50.071201,/muse/eegAux,"[nan, nan, 0.0, 0.0]"
2025-11-24T15:53:50.260051,/muse/gyro,"[4.508514404296875, -4.059906005859375, 2.190704345703125]"
2025-11-24T15:53:50.307236,/muse/acc,"[0.233642578125, -0.15740966796875, 0.967041015625]"
2025-11-24T15:53:50.338878,/muse/acc,"[0.233642578125, -0.15740966796875, 0.967041015625]"
2025-11-24T15:53:50.385493,/muse/acc,"[0.233642578125, -0.15740966796875, 0.967041015625]"
2025-11-24T15:53:50.448243,/muse/eeg,"[816.7399267399268, 765.5677655677656, 431.13553113553115, 790.952380952381]"
2025-11-24T15:53:50.494322,/muse/eegAux,"[nan, nan, 0.0, 0.0]"
2025-11-24T15:53:50.541141,/muse/eeg,"[816.7399267399268, 765.5677655677656, 431.13553113553115, 790.952380952381]"
2025-11-24T15:53:50.633709,/muse/eeg,"[816.7399267399268, 765.5677655677656, 431.13553113553115, 790.952380952381]"
2025-11-24T15:53:50.603466,/muse/eegAux,"[nan, nan, 0.0, 0.0]"
2025-11-24T15:53:50.664099,/muse/eegAux,"[nan, nan, 0.0, 0.0]"
2025-11-24T15:53:50.710105,/muse/eeg,"[816.7399267399268, 765.5677655677656, 431.13553113553115, 790.952380952381]"
2025-11-24T15:53:50.787562,/muse/eegAux,"[nan, nan, 0.0, 0.0]"
2025-11-24T15:53:50.879049,/muse/eeg,"[816.7399267399268, 765.5677655677656, 431.13553113553115, 790.952380952381]"
2025-11-24T15:53:50.958319,/muse/eegAux,"[nan, nan, 0.0, 0.0]"
2025-11-24T15:53:51.005654,/muse/eeg,"[816.7399267399268, 765.5677655677656, 431.13553113553115, 790.952380952381]"
2025-11-24T15:53:51.098053,/muse/eegAux,"[nan, nan, 0.0, 0.0]"
2025-11-24T15:53:51.190167,/muse/eeg,"[816.7399267399268, 765.5677655677656, 431.13553113553115, 790.952380952381]"
2025-11-24T15:53:51.267388,/muse/eegAux,"[nan, nan, 0.0, 0.0]"
2025-11-24T15:53:51.298444,/muse/eeg,"[816.7399267399268, 765.5677655677656, 431.13553113553115, 790.952380952381]"
2025-11-24T15:53:51.421953,/muse/eegAux,"[nan, nan, 0.0, 0.0]"
2025-11-24T15:53:51.436931,/muse/eeg,"[816.7399267399268, 765.5677655677656, 431.13553113553115, 790.952380952381]"
2025-11-24T15:53:51.514380,/muse/eegAux,"[nan, nan, 0.0, 0.0]"
2025-11-24T15:53:51.685008,/muse/eeg,"[816.7399267399268, 765.5677655677656, 431.13553113553115, 790.952380952381]"
2025-11-24T15:53:51.732309,/muse/eegAux,"[nan, nan, 0.0, 0.0]"
2025-11-24T15:53:51.808897,/muse/eeg,"[816.7399267399268, 765.5677655677656, 431.13553113553115, 790.952380952381]"
2025-11-24T15:53:51.884992,/muse/eegAux,"[nan, nan, 0.0, 0.0]"
2025-11-24T15:53:51.962263,/muse/eeg,"[816.7399267399268, 765.5677655677656, 431.13553113553115, 790.952380952381]"
2025-11-24T15:53:52.008700,/muse/eegAux,"[nan, nan, 0.0, 0.0]"
2025-11-24T15:53:52.054787,/muse/gyro,"[4.964599609375, -3.7384033203125, 1.54022216796875]"
2025-11-24T15:53:52.117523,/muse/gyro,"[4.964599609375, -3.7384033203125, 1.54022216796875]"
2025-11-24T15:53:52.165770,/muse/gyro,"[4.964599609375, -3.7384033203125, 1.54022216796875]"
2025-11-24T15:53:52.211918,/muse/acc,"[0.24188232421875, -0.1563720703125, 0.95635986328125]"
2025-11-24T15:53:52.291103,/muse/acc,"[0.24188232421875, -0.1563720703125, 0.95635986328125]"
2025-11-24T15:53:52.353036,/muse/acc,"[0.24188232421875, -0.1563720703125, 0.95635986328125]"
2025-11-24T15:53:52.368266,/muse/eeg,"[807.4725274725275, 753.4798534798535, 659.1941391941392, 814.7252747252747]"
2025-11-24T15:53:52.414570,/muse/eegAux,"[nan, nan, 0.0, 0.0]"
2025-11-24T15:53:52.508040,/muse/eeg,"[828.4249084249085, 763.5531135531136, 538.7179487179487, 795.7875457875458]"
2025-11-24T15:53:52.602013,/muse/eegAux,"[nan, nan, 0.0, 0.0]"
2025-11-24T15:53:52.709659,/muse/eegAux,"[nan, nan, 0.0, 0.0]"
2025-11-24T15:53:52.694258,/muse/eeg,"[828.4249084249085, 763.5531135531136, 538.7179487179487, 795.7875457875458]"
2025-11-24T15:53:52.756798,/muse/eeg,"[828.4249084249085, 763.5531135531136, 538.7179487179487, 795.7875457875458]"
2025-11-24T15:53:52.803303,/muse/eegAux,"[nan, nan, 0.0, 0.0]"
2025-11-24T15:53:52.865562,/muse/eeg,"[828.4249084249085, 763.5531135531136, 538.7179487179487, 795.7875457875458]"
2025-11-24T15:53:52.916233,/muse/eegAux,"[nan, nan, 0.0, 0.0]"
2025-11-24T15:53:53.004757,/muse/eeg,"[828.4249084249085, 763.5531135531136, 538.7179487179487, 795.7875457875458]"
2025-11-24T15:53:53.081204,/muse/eegAux,"[nan, nan, 0.0, 0.0]"
2025-11-24T15:53:53.143142,/muse/eeg,"[828.4249084249085, 763.5531135531136, 538.7179487179487, 795.7875457875458]"
2025-11-24T15:53:53.234592,/muse/eegAux,"[nan, nan, 0.0, 0.0]"
2025-11-24T15:53:53.311953,/muse/eeg,"[824.7985347985348, 760.3296703296703, 643.8827838827839, 799.4139194139194]"
2025-11-24T15:53:53.373622,/muse/eegAux,"[nan, nan, 0.0, 0.0]"
2025-11-24T15:53:53.435576,/muse/eeg,"[824.7985347985348, 760.3296703296703, 643.8827838827839, 799.4139194139194]"
2025-11-24T15:53:53.544304,/muse/eegAux,"[nan, nan, 0.0, 0.0]"
2025-11-24T15:53:53.606596,/muse/elements/alpha_absolute,"[0.4045351742204163, 0.8230081029949274, 0.9472492683000144, 0.6394696585228882]"
2025-11-24T15:53:53.652737,/muse/elements/beta_absolute,"[0.5139893564045241, 0.6063358359960064, 0.9853979264338821, 0.6906771410392276]"
2025-11-24T15:53:53.760741,/muse/elements/delta_absolute,"[1.2186263642357997, 0.63104455252075, 0.9951193641341841, 1.2040301903886725]"
2025-11-24T15:53:53.931063,/muse/elements/gamma_absolute,"[-0.008371394604298173, 0.06227422626070807, 0.5136139700309592, 0.17448840194021192]"
2025-11-24T15:53:53.915661,/muse/elements/theta_absolute,"[0.8915075801423525, 0.33200030973506456, 0.7240757446562845, 0.8615877563892287]"
2025-11-24T15:53:53.977704,/muse/elements/alpha_relative,"[0.0815689897247914, 0.3641307447980289, 0.23952359640232274, 0.12812736613291822]"
2025-11-24T15:53:54.039051,/muse/elements/beta_relative,"[0.10494923217339593, 0.22109813662769384, 0.2615152154619236, 0.14416152942070817]"
2025-11-24T15:53:54.131904,/muse/elements/theta_relative,"[0.2503211176996629, 0.11755728736893077, 0.14327643941486778, 0.21367809170307298]"
2025-11-24T15:53:54.100625,/muse/elements/delta_relative,"[0.5316383156463491, 0.23404199906337414, 0.26743509587853037, 0.470113183593049]"
2025-11-24T15:53:54.193161,/muse/elements/gamma_relative,"[0.031522344755800645, 0.06317183214197221, 0.08824965284235554, 0.04391982915025167]"
2025-11-24T15:53:54.270126,/muse/is_good,"[1.0, 1.0, 0.0, 1.0]"
2025-11-24T15:53:54.331542,/muse/hsi,"[1.0, 1.0, 2.0, 1.0]"
2025-11-24T15:53:54.377682,/muse/eeg,"[824.7985347985348, 760.3296703296703, 643.8827838827839, 799.4139194139194]"
2025-11-24T15:53:54.439758,/muse/eegAux,"[nan, nan, 0.0, 0.0]"
2025-11-24T15:53:54.501325,/muse/eeg,"[824.7985347985348, 760.3296703296703, 643.8827838827839, 799.4139194139194]"
2025-11-24T15:53:54.564603,/muse/eegAux,"[nan, nan, 0.0, 0.0]"
2025-11-24T15:53:54.625988,/muse/eeg,"[824.7985347985348, 760.3296703296703, 643.8827838827839, 799.4139194139194]"
2025-11-24T15:53:54.673648,/muse/eegAux,"[nan, nan, 0.0, 0.0]"
2025-11-24T15:53:54.768336,/muse/eeg,"[826.8131868131868, 759.5238095238095, 708.3516483516484, 790.5494505494506]"
2025-11-24T15:53:54.860615,/muse/eegAux,"[nan, nan, 0.0, 0.0]"
2025-11-24T15:53:54.923442,/muse/eeg,"[817.948717948718, 767.985347985348, 344.1025641025641, 803.040293040293]"
2025-11-24T15:53:54.986185,/muse/eegAux,"[nan, nan, 0.0, 0.0]"
2025-11-24T15:53:55.047421,/muse/eeg,"[817.948717948718, 766.3736263736264, 176.4835164835165, 814.3223443223443]"
2025-11-24T15:53:55.093451,/muse/eegAux,"[nan, nan, 0.0, 0.0]"
2025-11-24T15:53:55.123861,/muse/eeg,"[827.2161172161173, 770.4029304029305, 429.1208791208791, 818.3516483516484]"
2025-11-24T15:53:55.218907,/muse/eegAux,"[nan, nan, 0.0, 0.0]"
2025-11-24T15:53:55.296969,/muse/eeg,"[827.2161172161173, 770.4029304029305, 429.1208791208791, 818.3516483516484]"
2025-11-24T15:53:55.360325,/muse/eegAux,"[nan, nan, 0.0, 0.0]"
2025-11-24T15:53:55.375700,/muse/eeg,"[827.2161172161173, 770.4029304029305, 429.1208791208791, 818.3516483516484]"
2025-11-24T15:53:55.438144,/muse/eegAux,"[nan, nan, 0.0, 0.0]"
2025-11-24T15:53:55.529607,/muse/eeg,"[827.2161172161173, 770.4029304029305, 429.1208791208791, 818.3516483516484]"
2025-11-24T15:53:55.592168,/muse/eegAux,"[nan, nan, 0.0, 0.0]"
2025-11-24T15:53:55.623301,/muse/eeg,"[827.2161172161173, 770.4029304029305, 429.1208791208791, 818.3516483516484]"
2025-11-24T15:53:55.669308,/muse/eegAux,"[nan, nan, 0.0, 0.0]"
2025-11-24T15:53:55.699928,/muse/eeg,"[827.2161172161173, 770.4029304029305, 429.1208791208791, 818.3516483516484]"
2025-11-24T15:53:55.746978,/muse/eegAux,"[nan, nan, 0.0, 0.0]"
2025-11-24T15:53:55.809085,/muse/eeg,"[827.2161172161173, 770.4029304029305, 429.1208791208791, 818.3516483516484]"
2025-11-24T15:53:55.841063,/muse/eegAux,"[nan, nan, 0.0, 0.0]"
2025-11-24T15:53:55.902184,/muse/eeg,"[827.2161172161173, 770.4029304029305, 429.1208791208791, 818.3516483516484]"
2025-11-24T15:53:55.979353,/muse/eegAux,"[nan, nan, 0.0, 0.0]"
2025-11-24T15:53:56.042036,/muse/eeg,"[827.2161172161173, 770.4029304029305, 429.1208791208791, 818.3516483516484]"
2025-11-24T15:53:56.089534,/muse/eegAux,"[nan, nan, 0.0, 0.0]"
2025-11-24T15:53:56.120715,/muse/gyro,"[4.493560791015625, -2.70660400390625, 1.45050048828125]"
2025-11-24T15:53:56.136128,/muse/gyro,"[4.493560791015625, -2.70660400390625, 1.45050048828125]"
2025-11-24T15:53:56.167108,/muse/gyro,"[4.493560791015625, -2.70660400390625, 1.45050048828125]"
2025-11-24T15:53:56.198437,/muse/acc,"[0.23516845703125, -0.15142822265625, 0.96173095703125]"
2025-11-24T15:53:56.292647,/muse/acc,"[0.23516845703125, -0.15142822265625, 0.96173095703125]"
2025-11-24T15:53:56.245054,/muse/acc,"[0.23516845703125, -0.15142822265625, 0.96173095703125]"
2025-11-24T15:53:56.323776,/muse/drlref,"[1618974.358974359, 1596410.2564102563]"
2025-11-24T15:53:56.417847,/muse/drlref,"[1618974.358974359, 1596410.2564102563]"
2025-11-24T15:53:56.558248,/muse/drlref,"[1618974.358974359, 1596410.2564102563]"
2025-11-24T15:53:56.480555,/muse/drlref,"[1618974.358974359, 1596410.2564102563]"
2025-11-24T15:53:56.605086,/muse/drlref,"[1618974.358974359, 1596410.2564102563]"
2025-11-24T15:53:56.668374,/muse/drlref,"[1618974.358974359, 1596410.2564102563]"
2025-11-24T15:53:56.805985,/muse/eeg,"[830.0366300366301, 770.8058608058608, 790.1465201465202, 816.7399267399268]"
2025-11-24T15:53:56.852121,/muse/eegAux,"[nan, nan, 0.0, 0.0]"
2025-11-24T15:53:56.959501,/muse/eeg,"[834.0659340659341, 774.8351648351648, 497.61904761904765, 791.7582417582418]"
2025-11-24T15:53:57.020941,/muse/eegAux,"[nan, nan, 0.0, 0.0]"
2025-11-24T15:53:57.098274,/muse/eeg,"[800.2197802197802, 767.985347985348, 372.3076923076923, 805.4578754578755]"
2025-11-24T15:53:57.159335,/muse/eegAux,"[nan, nan, 0.0, 0.0]"
2025-11-24T15:53:57.206788,/muse/eeg,"[801.025641025641, 751.8681318681319, 331.61172161172163, 788.1318681318681]"
2025-11-24T15:53:57.286393,/muse/eegAux,"[nan, nan, 0.0, 0.0]"
2025-11-24T15:53:57.378420,/muse/eegAux,"[nan, nan, 0.0, 0.0]"
2025-11-24T15:53:57.332362,/muse/eeg,"[809.4871794871796, 761.5384615384615, 90.65934065934066, 796.1904761904763]"
2025-11-24T15:53:57.504088,/muse/eeg,"[809.4871794871796, 761.5384615384615, 90.65934065934066, 796.1904761904763]"
2025-11-24T15:53:57.582153,/muse/eegAux,"[nan, nan, 0.0, 0.0]"
2025-11-24T15:53:57.643745,/muse/eeg,"[809.4871794871796, 761.5384615384615, 90.65934065934066, 796.1904761904763]"
2025-11-24T15:53:57.690003,/muse/eegAux,"[nan, nan, 0.0, 0.0]"
2025-11-24T15:53:57.721685,/muse/eeg,"[809.4871794871796, 761.5384615384615, 90.65934065934066, 796.1904761904763]"
2025-11-24T15:53:57.784070,/muse/eegAux,"[nan, nan, 0.0, 0.0]"
2025-11-24T15:53:57.844933,/muse/eeg,"[809.4871794871796, 761.5384615384615, 90.65934065934066, 796.1904761904763]"
2025-11-24T15:53:57.860098,/muse/eegAux,"[nan, nan, 0.0, 0.0]"
2025-11-24T15:53:57.922536,/muse/eeg,"[809.4871794871796, 761.5384615384615, 90.65934065934066, 796.1904761904763]"
2025-11-24T15:53:57.984851,/muse/eegAux,"[nan, nan, 0.0, 0.0]"
2025-11-24T15:53:58.032334,/muse/eeg,"[809.4871794871796, 761.5384615384615, 90.65934065934066, 796.1904761904763]"
2025-11-24T15:53:58.077936,/muse/eegAux,"[nan, nan, 0.0, 0.0]"
2025-11-24T15:53:58.123498,/muse/elements/alpha_absolute,"[0.4045351742204163, 0.8211540079514122, 0.9472492683000144, 0.6394696585228882]"
2025-11-24T15:53:58.170488,/muse/elements/beta_absolute,"[0.5139893564045241, 0.6169871102017578, 0.9853979264338821, 0.6803720868727124]"
2025-11-24T15:53:58.217463,/muse/elements/delta_absolute,"[1.2186263642357997, 0.6383363625228076, 0.9951193641341841, 1.2189921497010503]"
2025-11-24T15:53:58.279303,/muse/elements/theta_absolute,"[0.8915075801423525, 0.284478700648452, 0.7240757446562845, 0.8795222555825912]"
2025-11-24T15:53:58.341313,/muse/elements/gamma_absolute,"[-0.008371394604298173, 0.04968654478994692, 0.5136139700309592, 0.18825613124118948]"
2025-11-24T15:53:58.387720,/muse/elements/alpha_relative,"[0.0815689897247914, 0.3648005039574399, 0.23952359640232274, 0.12518292890652188]"
2025-11-24T15:53:58.526439,/muse/elements/beta_relative,"[0.10494923217339593, 0.22797568634270027, 0.2615152154619236, 0.13754586437348965]"
2025-11-24T15:53:58.603844,/muse/elements/delta_relative,"[0.5316383156463491, 0.2394626499443062, 0.26743509587853037, 0.47540921956820686]"
2025-11-24T15:53:58.697021,/muse/elements/theta_relative,"[0.2503211176996629, 0.10601812576617428, 0.14327643941486778, 0.21756934565411643]"
2025-11-24T15:53:58.758424,/muse/elements/gamma_relative,"[0.031522344755800645, 0.06174303398937938, 0.08824965284235554, 0.04429264149766524]"
2025-11-24T15:53:58.804020,/muse/is_good,"[0.0, 1.0, 0.0, 1.0]"
2025-11-24T15:53:58.851019,/muse/hsi,"[1.0, 1.0, 2.0, 1.0]"
2025-11-24T15:53:58.930102,/muse/eeg,"[828.021978021978, 769.5970695970697, 565.7142857142858, 813.1135531135532]"
2025-11-24T15:53:59.007593,/muse/eegAux,"[nan, nan, 0.0, 0.0]"
2025-11-24T15:53:59.054978,/muse/gyro,"[4.015045166015625, -2.609405517578125, 1.517791748046875]"
2025-11-24T15:53:59.102044,/muse/gyro,"[4.015045166015625, -2.609405517578125, 1.517791748046875]"
2025-11-24T15:53:59.132890,/muse/gyro,"[4.015045166015625, -2.609405517578125, 1.517791748046875]"
2025-11-24T15:53:59.195200,/muse/acc,"[0.23675537109375, -0.1495361328125, 0.9715576171875]"
2025-11-24T15:53:59.164471,/muse/acc,"[0.23675537109375, -0.1495361328125, 0.9715576171875]"
2025-11-24T15:53:59.241148,/muse/acc,"[0.23675537109375, -0.1495361328125, 0.9715576171875]"
2025-11-24T15:53:59.318272,/muse/eeg,"[817.1428571428571, 768.7912087912088, 798.2051282051282, 809.4871794871796]"
2025-11-24T15:53:59.364559,/muse/eegAux,"[nan, nan, 0.0, 0.0]"
2025-11-24T15:53:59.411234,/muse/eeg,"[815.5311355311355, 778.4615384615385, 701.5018315018315, 808.6813186813187]"
2025-11-24T15:53:59.459074,/muse/eegAux,"[nan, nan, 0.0, 0.0]"
2025-11-24T15:53:59.566995,/muse/eeg,"[804.6520146520147, 770.8058608058608, 458.13186813186815, 786.9230769230769]"
2025-11-24T15:53:59.630129,/muse/eegAux,"[nan, nan, 0.0, 0.0]"
2025-11-24T15:53:59.738429,/muse/eeg,"[804.6520146520147, 770.8058608058608, 458.13186813186815, 786.9230769230769]"
2025-11-24T15:53:59.801032,/muse/eegAux,"[nan, nan, 0.0, 0.0]"
2025-11-24T15:53:59.878941,/muse/eeg,"[804.6520146520147, 770.8058608058608, 458.13186813186815, 786.9230769230769]"
2025-11-24T15:53:59.940854,/muse/eegAux,"[nan, nan, 0.0, 0.0]"
2025-11-24T15:53:59.973309,/muse/eeg,"[804.6520146520147, 770.8058608058608, 458.13186813186815, 786.9230769230769]"
2025-11-24T15:54:00.004051,/muse/eegAux,"[nan, nan, 0.0, 0.0]"
2025-11-24T15:54:00.035044,/muse/eeg,"[804.6520146520147, 770.8058608058608, 458.13186813186815, 786.9230769230769]"
2025-11-24T15:54:00.096194,/muse/eegAux,"[nan, nan, 0.0, 0.0]"
2025-11-24T15:54:00.172721,/muse/eeg,"[804.6520146520147, 770.8058608058608, 458.13186813186815, 786.9230769230769]"
2025-11-24T15:54:00.189110,/muse/eegAux,"[nan, nan, 0.0, 0.0]"
2025-11-24T15:54:00.281961,/muse/eeg,"[804.6520146520147, 770.8058608058608, 458.13186813186815, 786.9230769230769]"
2025-11-24T15:54:00.345141,/muse/eegAux,"[nan, nan, 0.0, 0.0]"
2025-11-24T15:54:00.407432,/muse/eeg,"[804.6520146520147, 770.8058608058608, 458.13186813186815, 786.9230769230769]"
2025-11-24T15:54:00.437908,/muse/eegAux,"[nan, nan, 0.0, 0.0]"
2025-11-24T15:54:00.498924,/muse/eeg,"[804.6520146520147, 770.8058608058608, 458.13186813186815, 786.9230769230769]"
2025-11-24T15:54:00.607539,/muse/eegAux,"[nan, nan, 0.0, 0.0]"
2025-11-24T15:54:00.669590,/muse/eeg,"[804.6520146520147, 770.8058608058608, 458.13186813186815, 786.9230769230769]"
2025-11-24T15:54:00.732302,/muse/eegAux,"[nan, nan, 0.0, 0.0]"
2025-11-24T15:54:00.808752,/muse/gyro,"[3.835601806640625, -2.691650390625, 1.31591796875]"
2025-11-24T15:54:00.886313,/muse/gyro,"[3.835601806640625, -2.691650390625, 1.31591796875]"
2025-11-24T15:54:00.932821,/muse/gyro,"[3.835601806640625, -2.691650390625, 1.31591796875]"
2025-11-24T15:54:00.996830,/muse/acc,"[0.2274169921875, -0.1529541015625, 0.96417236328125]"
2025-11-24T15:54:01.058467,/muse/acc,"[0.2274169921875, -0.1529541015625, 0.96417236328125]"
2025-11-24T15:54:01.105382,/muse/acc,"[0.2274169921875, -0.1529541015625, 0.96417236328125]"
2025-11-24T15:54:01.182643,/muse/eeg,"[793.3699633699634, 768.3882783882784, 457.72893772893775, 786.1172161172161]"
2025-11-24T15:54:01.244050,/muse/eegAux,"[nan, nan, 0.0, 0.0]"
2025-11-24T15:54:01.275148,/muse/eeg,"[793.3699633699634, 768.3882783882784, 457.72893772893775, 786.1172161172161]"
2025-11-24T15:54:01.367825,/muse/eegAux,"[nan, nan, 0.0, 0.0]"
2025-11-24T15:54:01.524044,/muse/eeg,"[793.3699633699634, 768.3882783882784, 457.72893772893775, 786.1172161172161]"
2025-11-24T15:54:01.586372,/muse/eegAux,"[nan, nan, 0.0, 0.0]"
2025-11-24T15:54:01.664380,/muse/eegAux,"[nan, nan, 0.0, 0.0]"
2025-11-24T15:54:01.618426,/muse/eeg,"[793.3699633699634, 768.3882783882784, 457.72893772893775, 786.1172161172161]"
2025-11-24T15:54:01.710471,/muse/eeg,"[793.3699633699634, 768.3882783882784, 457.72893772893775, 786.1172161172161]"
2025-11-24T15:54:01.772341,/muse/eegAux,"[nan, nan, 0.0, 0.0]"
2025-11-24T15:54:01.834411,/muse/eeg,"[793.3699633699634, 768.3882783882784, 457.72893772893775, 786.1172161172161]"
2025-11-24T15:54:01.881221,/muse/eegAux,"[nan, nan, 0.0, 0.0]"
2025-11-24T15:54:01.927409,/muse/eeg,"[793.3699633699634, 768.3882783882784, 457.72893772893775, 786.1172161172161]"
2025-11-24T15:54:01.958351,/muse/eegAux,"[nan, nan, 0.0, 0.0]"
2025-11-24T15:54:02.082219,/muse/eeg,"[793.3699633699634, 768.3882783882784, 457.72893772893775, 786.1172161172161]"
2025-11-24T15:54:02.144978,/muse/eegAux,"[nan, nan, 0.0, 0.0]"
2025-11-24T15:54:02.223576,/muse/eeg,"[793.3699633699634, 768.3882783882784, 457.72893772893775, 786.1172161172161]"
2025-11-24T15:54:02.253762,/muse/eegAux,"[nan, nan, 0.0, 0.0]"
2025-11-24T15:54:02.300221,/muse/eeg,"[793.3699633699634, 768.3882783882784, 457.72893772893775, 786.1172161172161]"
2025-11-24T15:54:02.362155,/muse/eegAux,"[nan, nan, 0.0, 0.0]"
2025-11-24T15:54:02.439428,/muse/eeg,"[793.3699633699634, 768.3882783882784, 457.72893772893775, 786.1172161172161]"
2025-11-24T15:54:02.518209,/muse/eegAux,"[nan, nan, 0.0, 0.0]"
2025-11-24T15:54:02.595843,/muse/eeg,"[793.3699633699634, 768.3882783882784, 457.72893772893775, 786.1172161172161]"
2025-11-24T15:54:02.658271,/muse/eegAux,"[nan, nan, 0.0, 0.0]"
2025-11-24T15:54:02.735221,/muse/gyro,"[4.134674072265625, -3.1103515625, 1.637420654296875]"
2025-11-24T15:54:02.766436,/muse/gyro,"[4.134674072265625, -3.1103515625, 1.637420654296875]"
2025-11-24T15:54:02.844126,/muse/gyro,"[4.134674072265625, -3.1103515625, 1.637420654296875]"
2025-11-24T15:54:02.906930,/muse/acc,"[0.2310791015625, -0.14697265625, 0.97589111328125]"
2025-11-24T15:54:03.031630,/muse/acc,"[0.2310791015625, -0.14697265625, 0.97589111328125]"
2025-11-24T15:54:02.969147,/muse/acc,"[0.2310791015625, -0.14697265625, 0.97589111328125]"
2025-11-24T15:54:03.173025,/muse/eeg,"[805.8608058608058, 770.0, 263.1135531135531, 803.4432234432235]"
2025-11-24T15:54:03.264586,/muse/elements/alpha_absolute,"[0.4045351742204163, 0.7442931507226631, 0.9472492683000144, 0.6394696585228882]"
2025-11-24T15:54:03.218698,/muse/eegAux,"[nan, nan, 0.0, 0.0]"
2025-11-24T15:54:03.358239,/muse/elements/beta_absolute,"[0.5139893564045241, 0.6249500924329064, 0.9853979264338821, 0.674056480496876]"
2025-11-24T15:54:03.420517,/muse/elements/delta_absolute,"[1.2186263642357997, 0.6772816559969496, 0.9951193641341841, 1.2268288105353076]"
2025-11-24T15:54:03.467017,/muse/elements/theta_absolute,"[0.8915075801423525, 0.23331300007984168, 0.7240757446562845, 0.8794075781945236]"
2025-11-24T15:54:03.575288,/muse/elements/gamma_absolute,"[-0.008371394604298173, 0.040041140214958255, 0.5136139700309592, 0.20326341049189198]"
2025-11-24T15:54:03.622494,/muse/elements/alpha_relative,"[0.0815689897247914, 0.3202401807665611, 0.23952359640232274, 0.12416840581084786]"
2025-11-24T15:54:03.685879,/muse/elements/beta_relative,"[0.10494923217339593, 0.2432947648233973, 0.2615152154619236, 0.13446149241131083]"
2025-11-24T15:54:03.763062,/muse/elements/delta_relative,"[0.5316383156463491, 0.2744506903375046, 0.26743509587853037, 0.4801426192663936]"
2025-11-24T15:54:03.824803,/muse/elements/gamma_relative,"[0.031522344755800645, 0.06327378460136475, 0.08824965284235554, 0.045478366502088925]"
2025-11-24T15:54:03.793241,/muse/elements/theta_relative,"[0.2503211176996629, 0.09874057947117237, 0.14327643941486778, 0.21574911600935875]"
2025-11-24T15:54:03.839946,/muse/is_good,"[0.0, 1.0, 0.0, 1.0]"
2025-11-24T15:54:03.901052,/muse/hsi,"[1.0, 1.0, 2.0, 1.0]"
2025-11-24T15:54:03.978322,/muse/eeg,"[789.3406593406594, 773.2234432234433, 437.98534798534797, 807.0695970695971]"
2025-11-24T15:54:04.117370,/muse/eegAux,"[nan, nan, 0.0, 0.0]"
2025-11-24T15:54:04.149304,/muse/eeg,"[789.3406593406594, 773.2234432234433, 437.98534798534797, 807.0695970695971]"
2025-11-24T15:54:04.196012,/muse/eegAux,"[nan, nan, 0.0, 0.0]"
2025-11-24T15:54:04.274588,/muse/eeg,"[789.3406593406594, 773.2234432234433, 437.98534798534797, 807.0695970695971]"
2025-11-24T15:54:04.305541,/muse/eegAux,"[nan, nan, 0.0, 0.0]"
2025-11-24T15:54:04.352916,/muse/eeg,"[789.3406593406594, 773.2234432234433, 437.98534798534797, 807.0695970695971]"
2025-11-24T15:54:04.429682,/muse/eegAux,"[nan, nan, 0.0, 0.0]"
2025-11-24T15:54:04.508485,/muse/eeg,"[789.3406593406594, 773.2234432234433, 437.98534798534797, 807.0695970695971]"
2025-11-24T15:54:04.571260,/muse/eegAux,"[nan, nan, 0.0, 0.0]"
2025-11-24T15:54:04.616994,/muse/eeg,"[789.3406593406594, 773.2234432234433, 437.98534798534797, 807.0695970695971]"
2025-11-24T15:54:04.662750,/muse/eegAux,"[nan, nan, 0.0, 0.0]"
2025-11-24T15:54:04.817495,/muse/eegAux,"[nan, nan, 0.0, 0.0]"
2025-11-24T15:54:04.770844,/muse/eeg,"[789.3406593406594, 773.2234432234433, 437.98534798534797, 807.0695970695971]"
2025-11-24T15:54:04.912144,/muse/eeg,"[789.3406593406594, 773.2234432234433, 437.98534798534797, 807.0695970695971]"
2025-11-24T15:54:05.019465,/muse/eegAux,"[nan, nan, 0.0, 0.0]"
2025-11-24T15:54:05.081530,/muse/eeg,"[789.3406593406594, 773.2234432234433, 437.98534798534797, 807.0695970695971]"
2025-11-24T15:54:05.142715,/muse/eegAux,"[nan, nan, 0.0, 0.0]"
2025-11-24T15:54:05.188385,/muse/eeg,"[789.3406593406594, 773.2234432234433, 437.98534798534797, 807.0695970695971]"
2025-11-24T15:54:05.234944,/muse/eegAux,"[nan, nan, 0.0, 0.0]"
2025-11-24T15:54:05.281976,/muse/eeg,"[789.3406593406594, 773.2234432234433, 437.98534798534797, 807.0695970695971]"
2025-11-24T15:54:05.328380,/muse/eegAux,"[nan, nan, 0.0, 0.0]"
2025-11-24T15:54:05.359647,/muse/eeg,"[803.040293040293, 770.0, 526.2271062271062, 802.6373626373627]"
2025-11-24T15:54:05.468986,/muse/eeg,"[782.0879120879121, 766.3736263736264, 234.9084249084249, 787.7289377289378]"
2025-11-24T15:54:05.406656,/muse/eegAux,"[nan, nan, 0.0, 0.0]"
2025-11-24T15:54:05.546892,/muse/eegAux,"[nan, nan, 0.0, 0.0]"
2025-11-24T15:54:05.624367,/muse/eeg,"[800.2197802197802, 770.8058608058608, 276.007326007326, 797.3992673992674]"
2025-11-24T15:54:05.686145,/muse/eegAux,"[nan, nan, 0.0, 0.0]"
2025-11-24T15:54:05.717440,/muse/eeg,"[780.4761904761905, 771.6117216117216, 19.340659340659343, 788.9377289377289]"
2025-11-24T15:54:05.748079,/muse/eegAux,"[nan, nan, 0.0, 0.0]"
2025-11-24T15:54:05.855830,/muse/eeg,"[803.4432234432235, 780.0732600732601, 291.31868131868134, 787.7289377289378]"
2025-11-24T15:54:05.933325,/muse/eegAux,"[nan, nan, 0.0, 0.0]"
2025-11-24T15:54:05.979934,/muse/eeg,"[805.054945054945, 779.6703296703297, 488.35164835164835, 803.8461538461539]"
2025-11-24T15:54:06.027241,/muse/eegAux,"[nan, nan, 0.0, 0.0]"
2025-11-24T15:54:06.109641,/muse/eeg,"[805.054945054945, 779.6703296703297, 488.35164835164835, 803.8461538461539]"
2025-11-24T15:54:06.124694,/muse/eegAux,"[nan, nan, 0.0, 0.0]"
2025-11-24T15:54:06.171179,/muse/eeg,"[805.054945054945, 779.6703296703297, 488.35164835164835, 803.8461538461539]"
2025-11-24T15:54:06.202123,/muse/eegAux,"[nan, nan, 0.0, 0.0]"
2025-11-24T15:54:06.264655,/muse/eeg,"[805.054945054945, 779.6703296703297, 488.35164835164835, 803.8461538461539]"
2025-11-24T15:54:06.325822,/muse/eegAux,"[nan, nan, 0.0, 0.0]"
2025-11-24T15:54:06.404591,/muse/eeg,"[805.054945054945, 779.6703296703297, 488.35164835164835, 803.8461538461539]"
2025-11-24T15:54:06.404591,/muse/eegAux,"[nan, nan, 0.0, 0.0]"
2025-11-24T15:54:06.483197,/muse/eeg,"[805.054945054945, 779.6703296703297, 488.35164835164835, 803.8461538461539]"
2025-11-24T15:54:06.592412,/muse/eeg,"[805.054945054945, 779.6703296703297, 488.35164835164835, 803.8461538461539]"
2025-11-24T15:54:06.530159,/muse/eegAux,"[nan, nan, 0.0, 0.0]"
2025-11-24T15:54:06.623494,/muse/eegAux,"[nan, nan, 0.0, 0.0]"
2025-11-24T15:54:06.731339,/muse/drlref,"[1618974.358974359, 1596410.2564102563]"
2025-11-24T15:54:06.777719,/muse/drlref,"[1618974.358974359, 1596410.2564102563]"
2025-11-24T15:54:06.840334,/muse/drlref,"[1618974.358974359, 1596410.2564102563]"
2025-11-24T15:54:06.903150,/muse/drlref,"[1618974.358974359, 1596410.2564102563]"
2025-11-24T15:54:06.856055,/muse/drlref,"[1618974.358974359, 1596410.2564102563]"
2025-11-24T15:54:07.042102,/muse/drlref,"[1618974.358974359, 1596410.2564102563]"
2025-11-24T15:54:07.134719,/muse/gyro,"[4.015045166015625, -2.70660400390625, 1.9140625]"
2025-11-24T15:54:07.273783,/muse/gyro,"[4.015045166015625, -2.70660400390625, 1.9140625]"
2025-11-24T15:54:07.212547,/muse/gyro,"[4.015045166015625, -2.70660400390625, 1.9140625]"
2025-11-24T15:54:07.413563,/muse/acc,"[0.22894287109375, -0.1513671875, 0.9620361328125]"
2025-11-24T15:54:07.368137,/muse/acc,"[0.22894287109375, -0.1513671875, 0.9620361328125]"
2025-11-24T15:54:07.460189,/muse/acc,"[0.22894287109375, -0.1513671875, 0.9620361328125]"
2025-11-24T15:54:07.507047,/muse/eeg,"[802.2344322344322, 775.2380952380953, 479.4871794871795, 806.6666666666667]"
2025-11-24T15:54:07.553440,/muse/eegAux,"[nan, nan, 0.0, 0.0]"
2025-11-24T15:54:07.585153,/muse/eeg,"[802.2344322344322, 775.2380952380953, 479.4871794871795, 806.6666666666667]"
2025-11-24T15:54:07.616474,/muse/eegAux,"[nan, nan, 0.0, 0.0]"
2025-11-24T15:54:07.710021,/muse/eeg,"[802.2344322344322, 775.2380952380953, 479.4871794871795, 806.6666666666667]"
2025-11-24T15:54:07.802700,/muse/eegAux,"[nan, nan, 0.0, 0.0]"
2025-11-24T15:54:07.865118,/muse/elements/alpha_absolute,"[0.4045351742204163, 0.6534440789918627, 0.9472492683000144, 0.6394696585228882]"
2025-11-24T15:54:07.926769,/muse/elements/beta_absolute,"[0.5139893564045241, 0.6282844357956181, 0.9853979264338821, 0.6689704740855993]"
2025-11-24T15:54:08.020280,/muse/elements/delta_absolute,"[1.2186263642357997, 0.7270944568221175, 0.9951193641341841, 1.2261319647070767]"
2025-11-24T15:54:08.036045,/muse/elements/theta_absolute,"[0.8915075801423525, 0.19805422011917811, 0.7240757446562845, 0.8601917052665313]"
2025-11-24T15:54:08.082401,/muse/elements/gamma_absolute,"[-0.008371394604298173, 0.036548375739876786, 0.5136139700309592, 0.2248296129828135]"
2025-11-24T15:54:08.113618,/muse/elements/alpha_relative,"[0.0815689897247914, 0.26877604201823224, 0.23952359640232274, 0.1253413338367362]"
2025-11-24T15:54:08.191921,/muse/elements/beta_relative,"[0.10494923217339593, 0.25364768974066576, 0.2615152154619236, 0.13415137474437974]"
2025-11-24T15:54:08.238612,/muse/elements/delta_relative,"[0.5316383156463491, 0.3184497645216694, 0.26743509587853037, 0.48390110984053114]"
2025-11-24T15:54:08.314867,/muse/elements/theta_relative,"[0.2503211176996629, 0.09418911046485892, 0.14327643941486778, 0.20836096432112722]"
2025-11-24T15:54:08.330346,/muse/elements/gamma_relative,"[0.031522344755800645, 0.06493739325457382, 0.08824965284235554, 0.04824521725722581]"
2025-11-24T15:54:08.377469,/muse/is_good,"[0.0, 1.0, 0.0, 1.0]"
2025-11-24T15:54:08.471309,/muse/hsi,"[1.0, 1.0, 2.0, 1.0]"
2025-11-24T15:54:08.564252,/muse/eeg,"[796.996336996337, 773.6263736263736, 156.73992673992674, 802.2344322344322]"
2025-11-24T15:54:08.642592,/muse/eegAux,"[nan, nan, 0.0, 0.0]"
2025-11-24T15:54:08.689519,/muse/eeg,"[788.1318681318681, 776.4468864468864, 422.6739926739927, 796.5934065934066]"
2025-11-24T15:54:08.766148,/muse/eegAux,"[nan, nan, 0.0, 0.0]"
2025-11-24T15:54:08.859107,/muse/eegAux,"[nan, nan, 0.0, 0.0]"
2025-11-24T15:54:08.797551,/muse/eeg,"[811.9047619047619, 790.952380952381, 457.32600732600736, 815.934065934066]"
2025-11-24T15:54:08.874431,/muse/eeg,"[811.9047619047619, 790.952380952381, 457.32600732600736, 815.934065934066]"
2025-11-24T15:54:08.982681,/muse/eeg,"[811.9047619047619, 790.952380952381, 457.32600732600736, 815.934065934066]"
2025-11-24T15:54:08.936844,/muse/eegAux,"[nan, nan, 0.0, 0.0]"
2025-11-24T15:54:09.060644,/muse/eegAux,"[nan, nan, 0.0, 0.0]"
2025-11-24T15:54:09.139191,/muse/eeg,"[811.9047619047619, 790.952380952381, 457.32600732600736, 815.934065934066]"
2025-11-24T15:54:09.216817,/muse/eegAux,"[nan, nan, 0.0, 0.0]"
2025-11-24T15:54:09.418543,/muse/eegAux,"[nan, nan, 0.0, 0.0]"
2025-11-24T15:54:09.339857,/muse/eeg,"[811.9047619047619, 790.952380952381, 457.32600732600736, 815.934065934066]"
2025-11-24T15:54:09.496994,/muse/eeg,"[811.9047619047619, 790.952380952381, 457.32600732600736, 815.934065934066]"
2025-11-24T15:54:09.575368,/muse/eegAux,"[nan, nan, 0.0, 0.0]"
2025-11-24T15:54:09.622187,/muse/eeg,"[811.9047619047619, 790.952380952381, 457.32600732600736, 815.934065934066]"
2025-11-24T15:54:09.668688,/muse/eegAux,"[nan, nan, 0.0, 0.0]"
2025-11-24T15:54:09.714485,/muse/gyro,"[4.373931884765625, -1.55517578125, 2.16827392578125]"
2025-11-24T15:54:09.760543,/muse/gyro,"[4.373931884765625, -1.55517578125, 2.16827392578125]"
2025-11-24T15:54:09.837174,/muse/gyro,"[4.373931884765625, -1.55517578125, 2.16827392578125]"
2025-11-24T15:54:09.961650,/muse/acc,"[0.2349853515625, -0.1512451171875, 0.97235107421875]"
2025-11-24T15:54:10.006618,/muse/acc,"[0.2349853515625, -0.1512451171875, 0.97235107421875]"
2025-11-24T15:54:10.100791,/muse/acc,"[0.2349853515625, -0.1512451171875, 0.97235107421875]"
2025-11-24T15:54:10.131375,/muse/eeg,"[805.8608058608058, 782.893772893773, 638.2417582417582, 813.1135531135532]"
2025-11-24T15:54:10.209448,/muse/eegAux,"[nan, nan, 0.0, 0.0]"
2025-11-24T15:54:10.349359,/muse/eeg,"[796.5934065934066, 778.4615384615385, 354.57875457875457, 802.6373626373627]"
2025-11-24T15:54:10.364921,/muse/eegAux,"[nan, nan, 0.0, 0.0]"
2025-11-24T15:54:10.519947,/muse/eeg,"[791.3553113553114, 772.4175824175825, 588.2783882783883, 797.8021978021978]"
2025-11-24T15:54:10.581864,/muse/eegAux,"[nan, nan, 0.0, 0.0]"
2025-11-24T15:54:10.691647,/muse/eegAux,"[nan, nan, 0.0, 0.0]"
2025-11-24T15:54:10.629158,/muse/eeg,"[778.0586080586081, 772.014652014652, 65.27472527472527, 800.2197802197802]"
2025-11-24T15:54:10.753801,/muse/eeg,"[801.4285714285714, 786.1172161172161, 533.0769230769231, 791.3553113553114]"
2025-11-24T15:54:10.801022,/muse/eegAux,"[nan, nan, 0.0, 0.0]"
2025-11-24T15:54:10.847879,/muse/eeg,"[790.1465201465202, 757.5091575091575, 273.1868131868132, 804.6520146520147]"
2025-11-24T15:54:10.910264,/muse/eegAux,"[nan, nan, 0.0, 0.0]"
2025-11-24T15:54:10.957812,/muse/eeg,"[790.1465201465202, 757.5091575091575, 273.1868131868132, 804.6520146520147]"
2025-11-24T15:54:10.988114,/muse/eegAux,"[nan, nan, 0.0, 0.0]"
2025-11-24T15:54:11.097003,/muse/eeg,"[790.1465201465202, 757.5091575091575, 273.1868131868132, 804.6520146520147]"
2025-11-24T15:54:11.174486,/muse/eegAux,"[nan, nan, 0.0, 0.0]"
2025-11-24T15:54:11.190147,/muse/eeg,"[790.1465201465202, 757.5091575091575, 273.1868131868132, 804.6520146520147]"
2025-11-24T15:54:11.237262,/muse/eegAux,"[nan, nan, 0.0, 0.0]"
2025-11-24T15:54:11.284574,/muse/eeg,"[790.1465201465202, 757.5091575091575, 273.1868131868132, 804.6520146520147]"
2025-11-24T15:54:11.314878,/muse/eegAux,"[nan, nan, 0.0, 0.0]"
2025-11-24T15:54:11.407693,/muse/eeg,"[790.1465201465202, 757.5091575091575, 273.1868131868132, 804.6520146520147]"
2025-11-24T15:54:11.423084,/muse/eegAux,"[nan, nan, 0.0, 0.0]"
2025-11-24T15:54:11.454231,/muse/eeg,"[790.1465201465202, 757.5091575091575, 273.1868131868132, 804.6520146520147]"
2025-11-24T15:54:11.500820,/muse/eegAux,"[nan, nan, 0.0, 0.0]"
2025-11-24T15:54:11.594507,/muse/gyro,"[3.611297607421875, -0.620574951171875, 2.444915771484375]"
2025-11-24T15:54:11.532823,/muse/gyro,"[3.93280029296875, -1.114044189453125, 2.51220703125]"
2025-11-24T15:54:11.656549,/muse/gyro,"[3.611297607421875, -0.620574951171875, 2.444915771484375]"
2025-11-24T15:54:11.845036,/muse/acc,"[0.23406982421875, -0.149169921875, 0.9677734375]"
2025-11-24T15:54:11.782488,/muse/acc,"[0.23406982421875, -0.149169921875, 0.9677734375]"
2025-11-24T15:54:11.891175,/muse/acc,"[0.23406982421875, -0.149169921875, 0.9677734375]"
2025-11-24T15:54:11.953478,/muse/eeg,"[790.1465201465202, 767.1794871794872, 573.7728937728938, 788.5347985347986]"
2025-11-24T15:54:11.969438,/muse/eegAux,"[nan, nan, 0.0, 0.0]"
2025-11-24T15:54:12.045296,/muse/eeg,"[791.7582417582418, 759.92673992674, 674.1025641025641, 790.952380952381]"
2025-11-24T15:54:12.122661,/muse/eeg,"[791.7582417582418, 759.92673992674, 674.1025641025641, 790.952380952381]"
2025-11-24T15:54:12.092473,/muse/eegAux,"[nan, nan, 0.0, 0.0]"
2025-11-24T15:54:12.201078,/muse/eegAux,"[nan, nan, 0.0, 0.0]"
2025-11-24T15:54:12.295031,/muse/eeg,"[786.5201465201466, 764.7619047619048, 246.1904761904762, 803.040293040293]"
2025-11-24T15:54:12.310072,/muse/eegAux,"[nan, nan, 0.0, 0.0]"
2025-11-24T15:54:12.373530,/muse/eeg,"[779.6703296703297, 768.7912087912088, 346.5201465201465, 789.3406593406594]"
2025-11-24T15:54:12.451003,/muse/eegAux,"[nan, nan, 0.0, 0.0]"
2025-11-24T15:54:12.513497,/muse/elements/alpha_absolute,"[0.4045351742204163, 0.5994619642752034, 0.9472492683000144, 0.6434433697219165]"
2025-11-24T15:54:12.575844,/muse/elements/beta_absolute,"[0.5139893564045241, 0.6271443095977702, 0.9853979264338821, 0.6593906585121972]"
2025-11-24T15:54:12.684423,/muse/elements/theta_absolute,"[0.8915075801423525, 0.18241245234478398, 0.7240757446562845, 0.829126248124854]"
2025-11-24T15:54:12.653789,/muse/elements/delta_absolute,"[1.2186263642357997, 0.7667099706698453, 0.9951193641341841, 1.214930871628726]"
2025-11-24T15:54:12.716032,/muse/elements/gamma_absolute,"[-0.008371394604298173, 0.04392445947359772, 0.5136139700309592, 0.25500008296255755]"
2025-11-24T15:54:12.825186,/muse/elements/alpha_relative,"[0.0815689897247914, 0.23828642136823316, 0.23952359640232274, 0.1297379991145615]"
2025-11-24T15:54:12.871775,/muse/elements/beta_relative,"[0.10494923217339593, 0.2539695446585502, 0.2615152154619236, 0.1345905241740961]"
2025-11-24T15:54:12.949374,/muse/elements/delta_relative,"[0.5316383156463491, 0.35022512695895125, 0.26743509587853037, 0.4836761775340819]"
2025-11-24T15:54:13.042262,/muse/elements/theta_relative,"[0.2503211176996629, 0.09121153889242878, 0.14327643941486778, 0.1989528084690249]"
2025-11-24T15:54:13.119809,/muse/elements/gamma_relative,"[0.031522344755800645, 0.06630736812183664, 0.08824965284235554, 0.053042490708235635]"
2025-11-24T15:54:13.195483,/muse/is_good,"[0.0, 1.0, 0.0, 1.0]"
2025-11-24T15:54:13.241440,/muse/hsi,"[1.0, 1.0, 2.0, 1.0]"
2025-11-24T15:54:13.335906,/muse/eegAux,"[nan, nan, 0.0, 0.0]"
2025-11-24T15:54:13.273005,/muse/eeg,"[779.6703296703297, 768.7912087912088, 346.5201465201465, 789.3406593406594]"
2025-11-24T15:54:13.398299,/muse/eeg,"[779.6703296703297, 768.7912087912088, 346.5201465201465, 789.3406593406594]"
2025-11-24T15:54:13.492931,/muse/eeg,"[779.6703296703297, 768.7912087912088, 346.5201465201465, 789.3406593406594]"
2025-11-24T15:54:13.461296,/muse/eegAux,"[nan, nan, 0.0, 0.0]"
2025-11-24T15:54:13.556092,/muse/eegAux,"[nan, nan, 0.0, 0.0]"
2025-11-24T15:54:13.556092,/muse/eeg,"[779.6703296703297, 768.7912087912088, 346.5201465201465, 789.3406593406594]"
2025-11-24T15:54:13.587737,/muse/eegAux,"[nan, nan, 0.0, 0.0]"
2025-11-24T15:54:13.696804,/muse/eeg,"[779.6703296703297, 768.7912087912088, 346.5201465201465, 789.3406593406594]"
2025-11-24T15:54:13.743653,/muse/eegAux,"[nan, nan, 0.0, 0.0]"
2025-11-24T15:54:13.899162,/muse/eeg,"[779.6703296703297, 768.7912087912088, 346.5201465201465, 789.3406593406594]"
2025-11-24T15:54:14.007563,/muse/eegAux,"[nan, nan, 0.0, 0.0]"
2025-11-24T15:54:14.117010,/muse/eegAux,"[nan, nan, 0.0, 0.0]"
2025-11-24T15:54:14.085076,/muse/eeg,"[779.6703296703297, 768.7912087912088, 346.5201465201465, 789.3406593406594]"
2025-11-24T15:54:14.179866,/muse/gyro,"[3.551483154296875, -0.16448974609375, 2.51220703125]"
2025-11-24T15:54:14.226787,/muse/gyro,"[3.5589599609375, 0.9869384765625, 2.310333251953125]"
2025-11-24T15:54:14.273574,/muse/gyro,"[3.5589599609375, 0.9869384765625, 2.310333251953125]"
2025-11-24T15:54:14.336695,/muse/acc,"[0.22735595703125, -0.153076171875, 0.96929931640625]"
2025-11-24T15:54:14.384274,/muse/acc,"[0.22735595703125, -0.153076171875, 0.96929931640625]"
2025-11-24T15:54:14.447619,/muse/acc,"[0.22735595703125, -0.153076171875, 0.96929931640625]"
2025-11-24T15:54:14.478988,/muse/eeg,"[796.5934065934066, 767.985347985348, 198.24175824175825, 811.5018315018315]"
2025-11-24T15:54:14.556239,/muse/eegAux,"[nan, nan, 0.0, 0.0]"
2025-11-24T15:54:14.618973,/muse/eeg,"[790.952380952381, 765.9706959706959, 591.9047619047619, 793.3699633699634]"
2025-11-24T15:54:14.650677,/muse/eegAux,"[nan, nan, 0.0, 0.0]"
2025-11-24T15:54:14.696130,/muse/eeg,"[790.952380952381, 765.9706959706959, 591.9047619047619, 793.3699633699634]"
2025-11-24T15:54:14.743464,/muse/eegAux,"[nan, nan, 0.0, 0.0]"
2025-11-24T15:54:14.789955,/muse/eeg,"[790.952380952381, 765.9706959706959, 591.9047619047619, 793.3699633699634]"
2025-11-24T15:54:14.820809,/muse/eegAux,"[nan, nan, 0.0, 0.0]"
2025-11-24T15:54:14.836649,/muse/eeg,"[790.952380952381, 765.9706959706959, 591.9047619047619, 793.3699633699634]"
2025-11-24T15:54:14.929818,/muse/eegAux,"[nan, nan, 0.0, 0.0]"
2025-11-24T15:54:14.975866,/muse/eeg,"[790.952380952381, 765.9706959706959, 591.9047619047619, 793.3699633699634]"
2025-11-24T15:54:15.007478,/muse/eegAux,"[nan, nan, 0.0, 0.0]"
2025-11-24T15:54:15.022606,/muse/eeg,"[790.952380952381, 765.9706959706959, 591.9047619047619, 793.3699633699634]"
2025-11-24T15:54:15.098846,/muse/eegAux,"[nan, nan, 0.0, 0.0]"
2025-11-24T15:54:15.145283,/muse/eeg,"[790.952380952381, 765.9706959706959, 591.9047619047619, 793.3699633699634]"
2025-11-24T15:54:15.208335,/muse/eegAux,"[nan, nan, 0.0, 0.0]"
2025-11-24T15:54:15.269546,/muse/eeg,"[790.952380952381, 765.9706959706959, 591.9047619047619, 793.3699633699634]"
2025-11-24T15:54:15.332231,/muse/eegAux,"[nan, nan, 0.0, 0.0]"
2025-11-24T15:54:15.410574,/muse/eeg,"[790.952380952381, 765.9706959706959, 591.9047619047619, 793.3699633699634]"
2025-11-24T15:54:15.457473,/muse/eegAux,"[nan, nan, 0.0, 0.0]"
2025-11-24T15:54:15.534926,/muse/eeg,"[790.952380952381, 765.9706959706959, 591.9047619047619, 793.3699633699634]"
2025-11-24T15:54:15.597857,/muse/eegAux,"[nan, nan, 0.0, 0.0]"
2025-11-24T15:54:15.689566,/muse/eeg,"[790.952380952381, 765.9706959706959, 591.9047619047619, 793.3699633699634]"
2025-11-24T15:54:15.767527,/muse/eegAux,"[nan, nan, 0.0, 0.0]"
2025-11-24T15:54:15.875648,/muse/drlref,"[1618974.358974359, 1596410.2564102563]"
2025-11-24T15:54:15.938015,/muse/drlref,"[1618974.358974359, 1596410.2564102563]"
2025-11-24T15:54:15.985410,/muse/drlref,"[1618974.358974359, 1596410.2564102563]"
2025-11-24T15:54:16.046967,/muse/drlref,"[1618974.358974359, 1596410.2564102563]"
2025-11-24T15:54:16.110102,/muse/drlref,"[1618974.358974359, 1596410.2564102563]"
2025-11-24T15:54:16.204490,/muse/drlref,"[1618974.358974359, 1596410.2564102563]"
2025-11-24T15:54:16.313384,/muse/eegAux,"[nan, nan, 0.0, 0.0]"
19047619048, 466.996336996337, 795.7875457875458]"
2025-11-24T15:54:16.360304,/muse/eeg,"[786.5201465201466, 771.6117216117216, 469.8168498168498, 797.8021978021978]"
2025-11-24T15:54:16.422702,/muse/eegAux,"[nan, nan, 0.0, 0.0]"
2025-11-24T15:54:16.469324,/muse/eeg,"[786.1172161172161, 762.7472527472528, 51.57509157509158, 801.4285714285714]"
2025-11-24T15:54:16.531113,/muse/eegAux,"[nan, nan, 0.0, 0.0]"
2025-11-24T15:54:16.593998,/muse/eeg,"[803.4432234432235, 767.985347985348, 172.85714285714286, 803.4432234432235]"
2025-11-24T15:54:16.687552,/muse/eegAux,"[nan, nan, 0.0, 0.0]"
2025-11-24T15:54:16.750169,/muse/eegAux,"[nan, nan, 0.0, 0.0]"
2025-11-24T15:54:16.811958,/muse/eeg,"[803.4432234432235, 767.985347985348, 172.85714285714286, 803.4432234432235]"
2025-11-24T15:54:16.719203,/muse/eeg,"[803.4432234432235, 767.985347985348, 172.85714285714286, 803.4432234432235]"
2025-11-24T15:54:16.890089,/muse/eegAux,"[nan, nan, 0.0, 0.0]"
2025-11-24T15:54:16.953084,/muse/eeg,"[803.4432234432235, 767.985347985348, 172.85714285714286, 803.4432234432235]"
2025-11-24T15:54:17.000457,/muse/eegAux,"[nan, nan, 0.0, 0.0]"
2025-11-24T15:54:17.077449,/muse/elements/alpha_absolute,"[0.4045351742204163, 0.5797354505716499, 0.9472492683000144, 0.623232192753279]"
2025-11-24T15:54:17.170465,/muse/elements/beta_absolute,"[0.5139893564045241, 0.6230700140786049, 0.9853979264338821, 0.6449413822922093]"
2025-11-24T15:54:17.201493,/muse/elements/delta_absolute,"[1.2186263642357997, 0.7845580957188822, 0.9951193641341841, 1.1840000689408328]"
2025-11-24T15:54:17.294061,/muse/elements/theta_absolute,"[0.8915075801423525, 0.17700731542798093, 0.7240757446562845, 0.794849151529858]"
2025-11-24T15:54:17.386583,/muse/elements/gamma_absolute,"[-0.008371394604298173, 0.062421671881521416, 0.5136139700309592, 0.2881354538328564]"
2025-11-24T15:54:17.449217,/muse/elements/alpha_relative,"[0.0815689897247914, 0.22691155846533506, 0.23952359640232274, 0.13096947069338713]"
2025-11-24T15:54:17.511846,/muse/elements/beta_relative,"[0.10494923217339593, 0.2507212718088915, 0.2615152154619236, 0.13768266443793978]"
2025-11-24T15:54:17.636693,/muse/elements/delta_relative,"[0.5316383156463491, 0.36364637591918014, 0.26743509587853037, 0.47636291978074435]"
2025-11-24T15:54:17.668110,/muse/elements/theta_relative,"[0.2503211176996629, 0.08976943328369158, 0.14327643941486778, 0.1944406351793133]"
2025-11-24T15:54:17.699402,/muse/elements/gamma_relative,"[0.031522344755800645, 0.0689513605229018, 0.08824965284235554, 0.06054430990861527]"
2025-11-24T15:54:17.715479,/muse/is_good,"[0.0, 1.0, 0.0, 1.0]"
2025-11-24T15:54:17.794690,/muse/hsi,"[1.0, 1.0, 2.0, 1.0]"
2025-11-24T15:54:17.904597,/muse/eeg,"[795.3846153846154, 768.3882783882784, 476.6666666666667, 796.5934065934066]"
2025-11-24T15:54:17.935761,/muse/eegAux,"[nan, nan, 0.0, 0.0]"
2025-11-24T15:54:17.967192,/muse/eeg,"[795.3846153846154, 768.3882783882784, 476.6666666666667, 796.5934065934066]"
2025-11-24T15:54:18.014364,/muse/eegAux,"[nan, nan, 0.0, 0.0]"
2025-11-24T15:54:18.091729,/muse/eeg,"[795.3846153846154, 768.3882783882784, 476.6666666666667, 796.5934065934066]"
2025-11-24T15:54:18.138065,/muse/eegAux,"[nan, nan, 0.0, 0.0]"
2025-11-24T15:54:18.185252,/muse/eeg,"[795.3846153846154, 768.3882783882784, 476.6666666666667, 796.5934065934066]"
2025-11-24T15:54:18.326503,/muse/eeg,"[795.3846153846154, 768.3882783882784, 476.6666666666667, 796.5934065934066]"
2025-11-24T15:54:18.373172,/muse/eegAux,"[nan, nan, 0.0, 0.0]"
2025-11-24T15:54:18.419893,/muse/gyro,"[4.553375244140625, 1.4654541015625, 1.443023681640625]"
2025-11-24T15:54:18.574097,/muse/gyro,"[4.553375244140625, 1.4654541015625, 1.443023681640625]"
2025-11-24T15:54:18.528446,/muse/gyro,"[4.553375244140625, 1.4654541015625, 1.443023681640625]"
2025-11-24T15:54:18.668319,/muse/acc,"[0.21484375, -0.15692138671875, 0.9696044921875]"
2025-11-24T15:54:18.807688,/muse/acc,"[0.21484375, -0.15692138671875, 0.9696044921875]"
2025-11-24T15:54:18.760843,/muse/acc,"[0.21484375, -0.15692138671875, 0.9696044921875]"
2025-11-24T15:54:18.930838,/muse/eeg,"[775.6410256410256, 757.5091575091575, 141.02564102564102, 794.981684981685]"
2025-11-24T15:54:18.961439,/muse/eegAux,"[nan, nan, 0.0, 0.0]"
2025-11-24T15:54:19.023702,/muse/eeg,"[774.8351648351648, 763.956043956044, 319.5238095238095, 790.1465201465202]"
2025-11-24T15:54:19.070014,/muse/eegAux,"[nan, nan, 0.0, 0.0]"
2025-11-24T15:54:19.148706,/muse/eeg,"[794.5787545787546, 760.3296703296703, 452.0879120879121, 802.2344322344322]"
2025-11-24T15:54:19.211437,/muse/eeg,"[784.1025641025641, 774.4322344322345, 0.0, 780.0732600732601]"
2025-11-24T15:54:19.164416,/muse/eegAux,"[nan, nan, 0.0, 0.0]"
2025-11-24T15:54:19.226606,/muse/eegAux,"[nan, nan, 0.0, 0.0]"
2025-11-24T15:54:19.257569,/muse/eeg,"[807.8754578754579, 782.893772893773, 653.1501831501831, 786.1172161172161]"
2025-11-24T15:54:19.350074,/muse/eegAux,"[nan, nan, 0.0, 0.0]"
2025-11-24T15:54:19.427846,/muse/eeg,"[807.8754578754579, 782.893772893773, 653.1501831501831, 786.1172161172161]"
2025-11-24T15:54:19.505655,/muse/eegAux,"[nan, nan, 0.0, 0.0]"
2025-11-24T15:54:19.583615,/muse/eeg,"[807.8754578754579, 782.893772893773, 653.1501831501831, 786.1172161172161]"
2025-11-24T15:54:19.598382,/muse/eegAux,"[nan, nan, 0.0, 0.0]"
2025-11-24T15:54:19.644720,/muse/eeg,"[807.8754578754579, 782.893772893773, 653.1501831501831, 786.1172161172161]"
2025-11-24T15:54:19.755039,/muse/eeg,"[807.8754578754579, 782.893772893773, 653.1501831501831, 786.1172161172161]"
2025-11-24T15:54:19.660706,/muse/eegAux,"[nan, nan, 0.0, 0.0]"
2025-11-24T15:54:19.817611,/muse/eegAux,"[nan, nan, 0.0, 0.0]"
2025-11-24T15:54:19.925910,/muse/eeg,"[807.8754578754579, 782.893772893773, 653.1501831501831, 786.1172161172161]"
2025-11-24T15:54:19.972615,/muse/eegAux,"[nan, nan, 0.0, 0.0]"
2025-11-24T15:54:20.003362,/muse/eeg,"[807.8754578754579, 782.893772893773, 653.1501831501831, 786.1172161172161]"
2025-11-24T15:54:20.050532,/muse/eegAux,"[nan, nan, 0.0, 0.0]"
2025-11-24T15:54:20.176734,/muse/eegAux,"[nan, nan, 0.0, 0.0]"
2025-11-24T15:54:20.144785,/muse/eeg,"[807.8754578754579, 782.893772893773, 653.1501831501831, 786.1172161172161]"
2025-11-24T15:54:20.285002,/muse/gyro,"[6.392669677734375, -1.57012939453125, 0.73272705078125]"
2025-11-24T15:54:20.362943,/muse/gyro,"[6.392669677734375, -1.57012939453125, 0.73272705078125]"
2025-11-24T15:54:20.347579,/muse/gyro,"[6.392669677734375, -1.57012939453125, 0.73272705078125]"
2025-11-24T15:54:20.456355,/muse/acc,"[0.21514892578125, -0.15576171875, 0.96588134765625]"
2025-11-24T15:54:20.502561,/muse/acc,"[0.212158203125, -0.15838623046875, 0.9677734375]"
2025-11-24T15:54:20.580682,/muse/acc,"[0.210693359375, -0.15899658203125, 0.961669921875]"
2025-11-24T15:54:20.659481,/muse/eeg,"[799.8168498168499, 775.6410256410256, 473.4432234432235, 788.9377289377289]"
2025-11-24T15:54:20.704866,/muse/eegAux,"[nan, nan, 0.0, 0.0]"
2025-11-24T15:54:20.751787,/muse/eeg,"[801.025641025641, 759.1208791208792, 425.4945054945055, 803.040293040293]"
2025-11-24T15:54:20.782499,/muse/eegAux,"[nan, nan, 0.0, 0.0]"
2025-11-24T15:54:20.797543,/muse/eeg,"[803.4432234432235, 761.1355311355312, 104.76190476190476, 808.6813186813187]"
2025-11-24T15:54:20.813208,/muse/eegAux,"[nan, nan, 0.0, 0.0]"
2025-11-24T15:54:20.873636,/muse/eeg,"[803.4432234432235, 761.1355311355312, 104.76190476190476, 808.6813186813187]"
2025-11-24T15:54:20.904259,/muse/eegAux,"[nan, nan, 0.0, 0.0]"
2025-11-24T15:54:20.935230,/muse/eeg,"[803.4432234432235, 761.1355311355312, 104.76190476190476, 808.6813186813187]"
2025-11-24T15:54:20.982702,/muse/eegAux,"[nan, nan, 0.0, 0.0]"
2025-11-24T15:54:21.029606,/muse/eeg,"[803.4432234432235, 761.1355311355312, 104.76190476190476, 808.6813186813187]"
2025-11-24T15:54:21.169417,/muse/eegAux,"[nan, nan, 0.0, 0.0]"
2025-11-24T15:54:21.216988,/muse/eeg,"[803.4432234432235, 761.1355311355312, 104.76190476190476, 808.6813186813187]"
2025-11-24T15:54:21.325364,/muse/eegAux,"[nan, nan, 0.0, 0.0]"
2025-11-24T15:54:21.356601,/muse/eeg,"[803.4432234432235, 761.1355311355312, 104.76190476190476, 808.6813186813187]"
2025-11-24T15:54:21.371669,/muse/eegAux,"[nan, nan, 0.0, 0.0]"
2025-11-24T15:54:21.510230,/muse/eegAux,"[nan, nan, 0.0, 0.0]"
2025-11-24T15:54:21.572642,/muse/elements/alpha_absolute,"[0.4045351742204163, 0.5797354505716499, 0.9472492683000144, 0.623232192753279]"
2025-11-24T15:54:21.463962,/muse/eeg,"[784.9084249084249, 780.4761904761905, 384.3956043956044, 804.2490842490843]"
2025-11-24T15:54:21.650225,/muse/elements/beta_absolute,"[0.5139893564045241, 0.617983889598535, 0.9853979264338821, 0.6349564303914507]"
2025-11-24T15:54:21.712185,/muse/elements/delta_absolute,"[1.2186263642357997, 0.7887907338701338, 0.9951193641341841, 1.1627949956891914]"
2025-11-24T15:54:21.790232,/muse/elements/theta_absolute,"[0.8915075801423525, 0.1802366258209392, 0.7240757446562845, 0.7656535208503983]"
2025-11-24T15:54:21.915230,/muse/elements/alpha_relative,"[0.0815689897247914, 0.22576730246343318, 0.23952359640232274, 0.13604202077230163]"
2025-11-24T15:54:21.852184,/muse/elements/gamma_absolute,"[-0.008371394604298173, 0.08545725480310873, 0.5136139700309592, 0.2965523848153112]"
2025-11-24T15:54:21.947235,/muse/elements/beta_relative,"[0.10494923217339593, 0.24655254110035005, 0.2615152154619236, 0.13976464056552626]"
2025-11-24T15:54:21.993633,/muse/elements/delta_relative,"[0.5316383156463491, 0.36535607012653254, 0.26743509587853037, 0.47123319660456686]"
2025-11-24T15:54:22.135745,/muse/elements/theta_relative,"[0.2503211176996629, 0.08998336277413427, 0.14327643941486778, 0.1888401785676405]"
2025-11-24T15:54:22.214352,/muse/elements/gamma_relative,"[0.031522344755800645, 0.07234072353555, 0.08824965284235554, 0.06411996348996468]"
2025-11-24T15:54:22.260522,/muse/is_good,"[0.0, 1.0, 0.0, 1.0]"
2025-11-24T15:54:22.290638,/muse/hsi,"[1.0, 1.0, 2.0, 1.0]"
2025-11-24T15:54:22.414137,/muse/eeg,"[784.9084249084249, 780.4761904761905, 384.3956043956044, 804.2490842490843]"
2025-11-24T15:54:22.491849,/muse/eegAux,"[nan, nan, 0.0, 0.0]"
2025-11-24T15:54:22.522623,/muse/eeg,"[784.9084249084249, 780.4761904761905, 384.3956043956044, 804.2490842490843]"
2025-11-24T15:54:22.569220,/muse/eegAux,"[nan, nan, 0.0, 0.0]"
2025-11-24T15:54:22.662706,/muse/eeg,"[784.9084249084249, 780.4761904761905, 384.3956043956044, 804.2490842490843]"
2025-11-24T15:54:22.709899,/muse/eegAux,"[nan, nan, 0.0, 0.0]"
2025-11-24T15:54:22.866401,/muse/gyro,"[8.433837890625, -6.572113037109375, 0.83740234375]"
2025-11-24T15:54:22.834564,/muse/gyro,"[8.433837890625, -6.572113037109375, 0.83740234375]"
2025-11-24T15:54:22.945187,/muse/gyro,"[8.433837890625, -6.572113037109375, 0.83740234375]"
2025-11-24T15:54:23.023150,/muse/acc,"[0.1990966796875, -0.14544677734375, 0.95977783203125]"
2025-11-24T15:54:23.069368,/muse/acc,"[0.1990966796875, -0.14544677734375, 0.95977783203125]"
2025-11-24T15:54:23.130708,/muse/acc,"[0.1990966796875, -0.14544677734375, 0.95977783203125]"
2025-11-24T15:54:23.176609,/muse/eeg,"[788.1318681318681, 781.2820512820513, 499.2307692307692, 799.4139194139194]"
2025-11-24T15:54:23.208657,/muse/eegAux,"[nan, nan, 0.0, 0.0]"
2025-11-24T15:54:23.240291,/muse/eeg,"[776.4468864468864, 767.985347985348, 569.7435897435897, 783.2967032967033]"
2025-11-24T15:54:23.365268,/muse/eeg,"[775.2380952380953, 767.985347985348, 343.6996336996337, 776.0439560439561]"
2025-11-24T15:54:23.333693,/muse/eegAux,"[nan, nan, 0.0, 0.0]"
2025-11-24T15:54:23.443349,/muse/eeg,"[782.893772893773, 776.0439560439561, 558.4615384615385, 785.3113553113553]"
2025-11-24T15:54:23.505936,/muse/eegAux,"[nan, nan, 0.0, 0.0]"
2025-11-24T15:54:23.568621,/muse/eeg,"[782.893772893773, 769.5970695970697, 508.9010989010989, 788.5347985347986]"
2025-11-24T15:54:23.412415,/muse/eegAux,"[nan, nan, 0.0, 0.0]"
2025-11-24T15:54:23.677244,/muse/eegAux,"[nan, nan, 0.0, 0.0]"
2025-11-24T15:54:23.753240,/muse/eeg,"[771.6117216117216, 767.5824175824176, 242.56410256410257, 778.0586080586081]"
2025-11-24T15:54:23.832039,/muse/eegAux,"[nan, nan, 0.0, 0.0]"
2025-11-24T15:54:23.908906,/muse/eeg,"[774.8351648351648, 767.1794871794872, 112.01465201465201, 782.893772893773]"
2025-11-24T15:54:23.956805,/muse/eegAux,"[nan, nan, 0.0, 0.0]"
2025-11-24T15:54:23.988672,/muse/eeg,"[793.7728937728938, 775.6410256410256, 144.65201465201466, 800.6227106227107]"
2025-11-24T15:54:24.051341,/muse/eegAux,"[nan, nan, 0.0, 0.0]"
2025-11-24T15:54:24.161181,/muse/eeg,"[804.2490842490843, 771.6117216117216, 536.7032967032967, 811.9047619047619]"
2025-11-24T15:54:24.223471,/muse/eegAux,"[nan, nan, 0.0, 0.0]"
2025-11-24T15:54:24.348319,/muse/eegAux,"[nan, nan, 0.0, 0.0]"
2025-11-24T15:54:24.301740,/muse/eeg,"[784.1025641025641, 778.4615384615385, 89.04761904761905, 788.1318681318681]"
2025-11-24T15:54:24.426619,/muse/eeg,"[784.1025641025641, 778.4615384615385, 89.04761904761905, 788.1318681318681]"
2025-11-24T15:54:24.521060,/muse/eegAux,"[nan, nan, 0.0, 0.0]"
2025-11-24T15:54:24.627691,/muse/eegAux,"[nan, nan, 0.0, 0.0]"
2025-11-24T15:54:24.551317,/muse/eeg,"[784.1025641025641, 778.4615384615385, 89.04761904761905, 788.1318681318681]"
2025-11-24T15:54:24.674561,/muse/gyro,"[8.89739990234375, -7.185211181640625, 0.800018310546875]"
2025-11-24T15:54:24.752380,/muse/gyro,"[8.98712158203125, -8.074951171875, 0.9271240234375]"
2025-11-24T15:54:24.799611,/muse/gyro,"[8.62823486328125, -8.05999755859375, 0.67291259765625]"
2025-11-24T15:54:24.877407,/muse/acc,"[0.208740234375, -0.142333984375, 0.963134765625]"
2025-11-24T15:54:24.924296,/muse/acc,"[0.20220947265625, -0.13458251953125, 0.97076416015625]"
2025-11-24T15:54:24.971443,/muse/acc,"[0.2054443359375, -0.1346435546875, 0.9752197265625]"
2025-11-24T15:54:25.048990,/muse/eeg,"[787.7289377289378, 784.5054945054945, 249.01098901098902, 792.967032967033]"
2025-11-24T15:54:25.126117,/muse/eegAux,"[nan, nan, 0.0, 0.0]"
2025-11-24T15:54:25.157446,/muse/eeg,"[795.3846153846154, 772.4175824175825, 503.2600732600733, 791.7582417582418]"
2025-11-24T15:54:25.297251,/muse/eeg,"[782.893772893773, 767.985347985348, 409.7802197802198, 784.9084249084249]"
2025-11-24T15:54:25.234604,/muse/eegAux,"[nan, nan, 0.0, 0.0]"
2025-11-24T15:54:25.391001,/muse/eegAux,"[nan, nan, 0.0, 0.0]"
2025-11-24T15:54:25.422216,/muse/eeg,"[790.5494505494506, 779.6703296703297, 234.10256410256412, 788.1318681318681]"
2025-11-24T15:54:25.579151,/muse/eegAux,"[nan, nan, 0.0, 0.0]"
2025-11-24T15:54:25.609966,/muse/eeg,"[798.2051282051282, 776.0439560439561, 395.6776556776557, 796.5934065934066]"
2025-11-24T15:54:25.656159,/muse/eegAux,"[nan, nan, 0.0, 0.0]"
2025-11-24T15:54:25.733555,/muse/eeg,"[765.1648351648352, 756.7032967032967, 15.311355311355312, 797.8021978021978]"
2025-11-24T15:54:25.780677,/muse/eegAux,"[nan, nan, 0.0, 0.0]"
2025-11-24T15:54:25.857000,/muse/eeg,"[794.981684981685, 769.5970695970697, 506.0805860805861, 817.948717948718]"
2025-11-24T15:54:25.873053,/muse/eegAux,"[nan, nan, 0.0, 0.0]"
2025-11-24T15:54:25.983207,/muse/eegAux,"[nan, nan, 0.0, 0.0]"
2025-11-24T15:54:26.109195,/muse/eegAux,"[nan, nan, 0.0, 0.0]"
2025-11-24T15:54:26.155667,/muse/eeg,"[781.2820512820513, 774.0293040293041, 483.5164835164835, 792.967032967033]"
2025-11-24T15:54:25.935851,/muse/eeg,"[781.2820512820513, 774.0293040293041, 483.5164835164835, 792.967032967033]"
2025-11-24T15:54:26.046145,/muse/eeg,"[781.2820512820513, 774.0293040293041, 483.5164835164835, 792.967032967033]"
2025-11-24T15:54:26.217744,/muse/eegAux,"[nan, nan, 0.0, 0.0]"
2025-11-24T15:54:26.278388,/muse/eeg,"[781.2820512820513, 774.0293040293041, 483.5164835164835, 792.967032967033]"
2025-11-24T15:54:26.325228,/muse/eegAux,"[nan, nan, 0.0, 0.0]"
2025-11-24T15:54:26.356606,/muse/elements/alpha_absolute,"[0.4045351742204163, 0.5753712532178661, 0.9472492683000144, 0.623232192753279]"
2025-11-24T15:54:26.450460,/muse/elements/beta_absolute,"[0.5139893564045241, 0.614167951036884, 0.9853979264338821, 0.629675213306604]"
2025-11-24T15:54:26.466013,/muse/elements/delta_absolute,"[1.2186263642357997, 0.7884606154145898, 0.9951193641341841, 1.1375657852812242]"
2025-11-24T15:54:26.512024,/muse/elements/theta_absolute,"[0.8915075801423525, 0.1883046189717146, 0.7240757446562845, 0.7403909231011206]"
2025-11-24T15:54:26.605351,/muse/elements/gamma_absolute,"[-0.008371394604298173, 0.10326163962620478, 0.5136139700309592, 0.2990767982929977]"
2025-11-24T15:54:26.698355,/muse/elements/alpha_relative,"[0.0815689897247914, 0.22350485458814992, 0.23952359640232274, 0.14150141943956976]"
2025-11-24T15:54:26.792470,/muse/elements/beta_relative,"[0.10494923217339593, 0.24439012774158356, 0.2615152154619236, 0.14361632751204395]"
2025-11-24T15:54:26.823314,/muse/elements/delta_relative,"[0.5316383156463491, 0.3650701487379619, 0.26743509587853037, 0.4624815255458561]"
2025-11-24T15:54:26.885987,/muse/elements/theta_relative,"[0.2503211176996629, 0.09166854251228956, 0.14327643941486778, 0.1853188202330313]"
2025-11-24T15:54:26.977936,/muse/elements/gamma_relative,"[0.031522344755800645, 0.07536632642001517, 0.08824965284235554, 0.06708190726949896]"
2025-11-24T15:54:27.118252,/muse/hsi,"[1.0, 1.0, 2.0, 1.0]"
2025-11-24T15:54:27.009776,/muse/is_good,"[0.0, 1.0, 0.0, 1.0]"
2025-11-24T15:54:27.180679,/muse/eeg,"[774.0293040293041, 788.1318681318681, 250.62271062271063, 775.2380952380953]"
2025-11-24T15:54:27.242705,/muse/eegAux,"[nan, nan, 0.0, 0.0]"
2025-11-24T15:54:27.305605,/muse/drlref,"[1618974.358974359, 1596410.2564102563]"
2025-11-24T15:54:27.428870,/muse/drlref,"[1618974.358974359, 1596410.2564102563]"
2025-11-24T15:54:27.538428,/muse/drlref,"[1618974.358974359, 1596410.2564102563]"
2025-11-24T15:54:27.616277,/muse/drlref,"[1618974.358974359, 1596410.2564102563]"
2025-11-24T15:54:27.601132,/muse/drlref,"[1618974.358974359, 1596410.2564102563]"
2025-11-24T15:54:27.662915,/muse/drlref,"[1618974.358974359, 1596410.2564102563]"
2025-11-24T15:54:27.678091,/muse/gyro,"[5.63751220703125, -12.5311279296875, 0.785064697265625]"
2025-11-24T15:54:27.724481,/muse/gyro,"[5.63751220703125, -12.5311279296875, 0.785064697265625]"
2025-11-24T15:54:27.816976,/muse/acc,"[0.21319580078125, -0.1199951171875, 0.97735595703125]"
2025-11-24T15:54:27.754825,/muse/gyro,"[5.63751220703125, -12.5311279296875, 0.785064697265625]"
2025-11-24T15:54:27.925757,/muse/acc,"[0.21319580078125, -0.1199951171875, 0.97735595703125]"
2025-11-24T15:54:27.848074,/muse/acc,"[0.21319580078125, -0.1199951171875, 0.97735595703125]"
2025-11-24T15:54:27.957027,/muse/eeg,"[781.6849816849817, 792.967032967033, 344.1025641025641, 782.0879120879121]"
2025-11-24T15:54:28.066281,/muse/eegAux,"[nan, nan, 0.0, 0.0]"
2025-11-24T15:54:28.127095,/muse/eeg,"[776.0439560439561, 776.0439560439561, 293.73626373626377, 789.3406593406594]"
2025-11-24T15:54:28.172887,/muse/eegAux,"[nan, nan, 0.0, 0.0]"
2025-11-24T15:54:28.203758,/muse/eeg,"[779.6703296703297, 788.5347985347986, 147.47252747252747, 802.2344322344322]"
2025-11-24T15:54:28.344411,/muse/eegAux,"[nan, nan, 0.0, 0.0]"
2025-11-24T15:54:28.390816,/muse/eeg,"[777.6556776556777, 787.3260073260074, 220.40293040293042, 786.9230769230769]"
2025-11-24T15:54:28.530847,/muse/eegAux,"[nan, nan, 0.0, 0.0]"
2025-11-24T15:54:28.609689,/muse/eeg,"[784.9084249084249, 784.5054945054945, 328.3882783882784, 798.6080586080586]"
2025-11-24T15:54:28.717866,/muse/eegAux,"[nan, nan, 0.0, 0.0]"
2025-11-24T15:54:28.781578,/muse/eeg,"[784.9084249084249, 784.5054945054945, 328.3882783882784, 798.6080586080586]"
2025-11-24T15:54:28.873812,/muse/eeg,"[784.9084249084249, 784.5054945054945, 328.3882783882784, 798.6080586080586]"
2025-11-24T15:54:28.858578,/muse/eegAux,"[nan, nan, 0.0, 0.0]"
2025-11-24T15:54:28.950828,/muse/eegAux,"[nan, nan, 0.0, 0.0]"
2025-11-24T15:54:28.997752,/muse/eeg,"[784.9084249084249, 784.5054945054945, 328.3882783882784, 798.6080586080586]"
2025-11-24T15:54:29.029568,/muse/eegAux,"[nan, nan, 0.0, 0.0]"
2025-11-24T15:54:29.045234,/muse/eeg,"[784.9084249084249, 784.5054945054945, 328.3882783882784, 798.6080586080586]"
2025-11-24T15:54:29.076494,/muse/eegAux,"[nan, nan, 0.0, 0.0]"
2025-11-24T15:54:29.138795,/muse/eeg,"[784.9084249084249, 784.5054945054945, 328.3882783882784, 798.6080586080586]"
2025-11-24T15:54:29.295562,/muse/eegAux,"[nan, nan, 0.0, 0.0]"
2025-11-24T15:54:29.389364,/muse/eegAux,"[nan, nan, 0.0, 0.0]"
2025-11-24T15:54:29.451201,/muse/eeg,"[784.9084249084249, 784.5054945054945, 328.3882783882784, 798.6080586080586]"
2025-11-24T15:54:29.341994,/muse/eeg,"[784.9084249084249, 784.5054945054945, 328.3882783882784, 798.6080586080586]"
2025-11-24T15:54:29.498584,/muse/eegAux,"[nan, nan, 0.0, 0.0]"
2025-11-24T15:54:29.514442,/muse/eeg,"[777.6556776556777, 787.3260073260074, 291.31868131868134, 789.3406593406594]"
2025-11-24T15:54:29.592849,/muse/eegAux,"[nan, nan, 0.0, 0.0]"
2025-11-24T15:54:29.686333,/muse/eeg,"[784.1025641025641, 773.6263736263736, 226.04395604395606, 783.6996336996338]"
2025-11-24T15:54:29.792538,/muse/eegAux,"[nan, nan, 0.0, 0.0]"
2025-11-24T15:54:29.746811,/muse/eeg,"[794.981684981685, 785.3113553113553, 145.05494505494505, 805.054945054945]"
2025-11-24T15:54:29.886147,/muse/eeg,"[775.2380952380953, 774.0293040293041, 140.62271062271063, 791.7582417582418]"
2025-11-24T15:54:29.731794,/muse/eegAux,"[nan, nan, 0.0, 0.0]"
2025-11-24T15:54:30.027302,/muse/eegAux,"[nan, nan, 0.0, 0.0]"
2025-11-24T15:54:30.088728,/muse/eeg,"[798.2051282051282, 768.3882783882784, 367.87545787545787, 807.4725274725275]"
2025-11-24T15:54:30.119547,/muse/eegAux,"[nan, nan, 0.0, 0.0]"
2025-11-24T15:54:30.197443,/muse/eeg,"[798.2051282051282, 768.3882783882784, 367.87545787545787, 807.4725274725275]"
2025-11-24T15:54:30.244865,/muse/eegAux,"[nan, nan, 0.0, 0.0]"
2025-11-24T15:54:30.276245,/muse/eeg,"[798.2051282051282, 768.3882783882784, 367.87545787545787, 807.4725274725275]"
2025-11-24T15:54:30.322321,/muse/eegAux,"[nan, nan, 0.0, 0.0]"
2025-11-24T15:54:30.384856,/muse/eeg,"[798.2051282051282, 768.3882783882784, 367.87545787545787, 807.4725274725275]"
2025-11-24T15:54:30.416655,/muse/eegAux,"[nan, nan, 0.0, 0.0]"
2025-11-24T15:54:30.493907,/muse/eeg,"[798.2051282051282, 768.3882783882784, 367.87545787545787, 807.4725274725275]"
2025-11-24T15:54:30.572694,/muse/eeg,"[790.1465201465202, 772.8205128205128, 508.09523809523813, 790.952380952381]"
2025-11-24T15:54:30.619733,/muse/eeg,"[777.6556776556777, 758.7179487179487, 240.54945054945057, 776.0439560439561]"
2025-11-24T15:54:30.634881,/muse/eegAux,"[nan, nan, 0.0, 0.0]"
2025-11-24T15:54:30.696879,/muse/acc,"[0.2764892578125, -0.12969970703125, 0.9779052734375]"
2025-11-24T15:54:30.758908,/muse/drlref,"[1618974.358974359, 1596410.2564102563]"
2025-11-24T15:54:30.804641,/muse/drlref,"[1618974.358974359, 1596410.2564102563]"
2025-11-24T15:54:30.851638,/muse/eeg,"[792.1611721611722, 769.1941391941392, 534.2857142857143, 790.5494505494506]"
2025-11-24T15:54:30.898442,/muse/eeg,"[826.007326007326, 771.2087912087912, 713.992673992674, 796.1904761904763]"
2025-11-24T15:54:30.991835,/muse/eeg,"[812.7106227106227, 760.7326007326008, 177.6923076923077, 799.0109890109891]"
2025-11-24T15:54:31.038597,/muse/eeg,"[801.4285714285714, 790.5494505494506, 469.4139194139194, 784.9084249084249]"
2025-11-24T15:54:31.116715,/muse/eeg,"[792.967032967033, 785.3113553113553, 733.3333333333334, 782.0879120879121]"
2025-11-24T15:54:31.147387,/muse/eegAux,"[nan, nan, 0.0, 0.0]"
2025-11-24T15:54:31.225385,/muse/eeg,"[818.3516483516484, 768.7912087912088, 821.1721611721612, 805.8608058608058]"
2025-11-24T15:54:31.334749,/muse/gyro,"[2.43743896484375, -2.669219970703125, 7.88055419921875]"
2025-11-24T15:54:31.397434,/muse/eeg,"[808.6813186813187, 771.6117216117216, 493.5897435897436, 786.9230769230769]"
2025-11-24T15:54:31.428914,/muse/eeg,"[801.025641025641, 770.0, 471.02564102564105, 803.4432234432235]"
2025-11-24T15:54:31.491860,/muse/eeg,"[785.3113553113553, 776.8498168498169, 523.0036630036631, 755.4945054945055]"
2025-11-24T15:54:31.538862,/muse/eegAux,"[nan, nan, 0.0, 0.0]"
2025-11-24T15:54:31.586537,/muse/eeg,"[723.2600732600732, 759.5238095238095, 477.0695970695971, 753.0769230769231]"
2025-11-24T15:54:31.632653,/muse/eegAux,"[nan, nan, 0.0, 0.0]"
2025-11-24T15:54:31.678457,/muse/eegAux,"[nan, nan, 0.0, 0.0]"
